timestamps,TP9,AF7,AF8,TP10,Right AUX
1743562700.914,-22.949,-25.391,-28.320,-4.395,0.000
1743562700.918,-15.625,-20.996,-26.367,-8.301,0.000
1743562700.922,-8.789,-20.996,-19.043,-10.742,0.000
1743562700.926,-9.277,-29.297,-16.602,-7.812,0.000
1743562700.930,-21.484,-38.574,-19.043,-12.695,0.000
1743562700.934,-13.672,-31.738,-16.602,-6.348,0.000
1743562700.937,-17.090,-26.855,-20.508,-11.230,0.000
1743562700.941,-29.785,-26.855,-29.785,-26.367,0.000
1743562700.945,-20.996,-29.785,-29.785,-6.348,0.000
1743562700.949,-14.160,-32.227,-30.273,7.812,0.000
1743562700.953,-21.973,-31.738,-35.156,1.465,0.000
1743562700.957,-15.137,-33.203,-41.992,-4.883,0.000
1743562700.961,-22.461,-40.527,-36.133,-13.184,0.000
1743562700.965,-39.551,-43.457,-28.809,-35.156,0.000
1743562700.969,-41.504,-38.574,-34.180,-51.270,0.000
1743562700.973,-44.922,-37.598,-36.133,-50.781,0.000
1743562700.977,-43.945,-31.738,-34.668,-41.504,0.000
1743562700.980,-35.156,-28.320,-28.320,-37.109,0.000
1743562700.984,-28.809,-31.738,-25.391,-23.926,0.000
1743562700.988,-27.344,-34.668,-24.902,-11.719,0.000
1743562700.992,-35.645,-36.133,-23.926,-22.461,0.000
1743562700.996,-21.973,-38.086,-27.832,-42.969,0.000
1743562701.000,-36.133,-46.387,-41.016,-51.270,0.000
1743562701.004,-51.758,-44.922,-38.086,-38.086,0.000
1743562701.008,0.000,-37.598,-24.414,-29.297,0.000
1743562701.012,0.000,-37.598,-23.926,-23.438,0.000
1743562701.016,0.000,-29.785,-26.367,-27.832,0.000
1743562701.020,0.000,-22.949,-24.902,-21.973,0.000
1743562701.023,0.000,-30.762,-24.414,2.930,0.000
1743562701.027,0.000,-28.320,-23.438,-3.418,0.000
1743562701.031,0.000,-33.203,-27.344,-36.621,0.000
1743562701.035,0.000,-37.598,-25.391,-20.508,0.000
1743562701.039,0.000,-25.879,-21.484,-10.254,0.000
1743562701.043,0.000,-24.414,-24.414,-20.996,0.000
1743562701.047,0.000,-29.297,-39.062,-20.508,0.000
1743562701.051,0.000,-36.133,-43.457,-38.086,0.000
1743562701.055,-35.156,-37.109,-38.086,-46.387,0.000
1743562701.059,-23.438,-24.902,-44.922,-24.902,0.000
1743562701.063,-18.066,-23.926,-49.805,-20.996,0.000
1743562701.066,-28.809,-32.715,-41.504,-36.133,0.000
1743562701.070,-33.691,-26.367,-33.203,-36.133,0.000
1743562701.074,-18.066,-24.902,-41.504,-33.691,0.000
1743562701.078,-32.715,-40.527,-47.852,-45.410,0.000
1743562701.082,-58.105,-47.363,-40.039,-52.734,0.000
1743562701.086,-62.012,-37.598,-32.715,-49.805,0.000
1743562701.090,-55.176,-38.574,-37.109,-52.246,0.000
1743562701.094,-45.898,-37.109,-36.621,-42.969,0.000
1743562701.097,-50.781,-34.180,-33.691,-57.617,0.000
1743562701.102,-49.805,-40.527,-37.109,-63.477,0.000
1743562701.106,-45.410,-36.621,-36.133,-41.504,0.000
1743562701.109,-54.688,-32.715,-34.180,-51.270,0.000
1743562701.113,-56.641,-37.598,-38.086,-60.547,0.000
1743562701.117,-55.664,-46.875,-41.992,-50.293,0.000
1743562701.121,-56.641,-45.410,-33.691,-44.434,0.000
1743562701.125,-56.641,-41.016,-31.250,-42.480,0.000
1743562701.129,-52.734,-36.621,-38.086,-40.039,0.000
1743562701.133,-41.016,-34.180,-44.922,-48.828,0.000
1743562701.137,-23.926,-34.180,-39.062,-40.039,0.000
1743562701.140,-16.113,-25.391,-29.785,-41.992,0.000
1743562701.144,-26.367,-22.461,-37.109,-40.527,0.000
1743562701.149,-32.715,-23.438,-38.574,-28.320,0.000
1743562701.152,-32.227,-29.297,-35.645,-39.551,0.000
1743562701.156,-36.133,-34.180,-36.133,-33.203,0.000
1743562701.160,-38.086,-26.855,-32.715,-32.715,0.000
1743562701.164,-39.551,-24.902,-33.203,-36.133,0.000
1743562701.168,-35.645,-29.297,-39.551,-33.203,0.000
1743562701.172,-40.527,-38.086,-41.016,-39.551,0.000
1743562701.176,-38.086,-40.039,-35.156,-38.574,0.000
1743562701.180,-32.715,-27.344,-30.762,-27.344,0.000
1743562701.183,-34.668,-29.785,-30.762,-34.180,0.000
1743562701.187,-44.434,-40.527,-28.320,-50.781,0.000
1743562701.191,-53.223,-37.109,-24.414,-39.551,0.000
1743562701.195,-34.668,-31.738,-28.320,-32.715,0.000
1743562701.199,-37.109,-38.086,-41.016,-34.668,0.000
1743562701.203,-51.270,-42.969,-41.504,-40.039,0.000
1743562701.207,-41.992,-41.016,-34.668,-43.457,0.000
1743562701.211,-39.062,-34.668,-25.879,-35.645,0.000
1743562701.215,-39.062,-33.203,-25.879,-22.461,0.000
1743562701.219,-33.203,-43.945,-34.180,-20.020,0.000
1743562701.223,-27.832,-40.527,-31.250,-23.926,0.000
1743562701.226,-28.320,-28.809,-26.855,-26.367,0.000
1743562701.230,-39.551,-37.109,-26.855,-34.668,0.000
1743562701.234,-41.016,-40.527,-29.785,-27.344,0.000
1743562701.238,-48.340,-41.504,-45.410,-36.621,0.000
1743562701.242,-51.270,-44.922,-45.410,-46.875,0.000
1743562701.246,-37.598,-45.898,-41.992,-35.156,0.000
1743562701.250,-30.273,-45.410,-34.668,-30.762,0.000
1743562701.254,-18.066,-39.551,-32.227,-29.297,0.000
1743562701.258,-25.879,-38.574,-37.109,-24.414,0.000
1743562701.262,-33.691,-38.086,-28.809,-21.973,0.000
1743562701.266,-24.414,-28.809,-26.367,-19.043,0.000
1743562701.269,-27.344,-23.438,-29.297,-23.926,0.000
1743562701.273,-24.414,-18.066,-27.344,-26.367,0.000
1743562701.277,-21.973,-18.066,-20.020,-22.949,0.000
1743562701.281,-34.180,-32.227,-27.344,-34.180,0.000
1743562701.285,-44.434,-35.645,-34.180,-38.574,0.000
1743562701.289,-40.039,-34.180,-30.273,-40.527,0.000
1743562701.293,-25.391,-27.832,-31.738,-37.109,0.000
1743562701.297,-19.531,-21.484,-36.621,-30.273,0.000
1743562701.301,-33.203,-33.203,-40.039,-31.250,0.000
1743562701.305,-23.926,-32.227,-27.832,-32.715,0.000
1743562701.309,-27.832,-30.273,-27.344,-44.434,0.000
1743562701.312,-41.016,-39.062,-35.156,-43.945,0.000
1743562701.316,-32.227,-35.156,-31.250,-40.039,0.000
1743562701.320,-33.203,-35.156,-33.203,-49.805,0.000
1743562701.324,-41.016,-40.527,-30.762,-50.781,0.000
1743562701.328,-47.852,-41.504,-32.227,-42.480,0.000
1743562701.332,-47.363,-41.504,-31.738,-42.480,0.000
1743562701.336,-26.855,-37.598,-27.832,-37.109,0.000
1743562701.340,-11.719,-31.738,-30.273,-32.227,0.000
1743562701.344,-28.320,-28.320,-37.109,-33.691,0.000
1743562701.348,-44.922,-29.297,-39.551,-37.109,0.000
1743562701.352,-41.016,-40.039,-36.621,-46.875,0.000
1743562701.355,-41.016,-41.504,-31.250,-40.039,0.000
1743562701.359,-49.805,-33.691,-27.832,-38.574,0.000
1743562701.363,-41.016,-22.949,-32.227,-54.688,0.000
1743562701.367,-23.926,-20.508,-34.668,-37.598,0.000
1743562701.371,-36.133,-28.320,-27.344,-30.273,0.000
1743562701.375,-52.246,-32.227,-17.578,-30.273,0.000
1743562701.379,-57.617,-35.156,-19.531,-20.508,0.000
1743562701.383,-54.688,-31.250,-23.926,-7.812,0.000
1743562701.387,-51.758,-32.715,-19.043,-9.277,0.000
1743562701.391,-56.152,-37.598,-15.625,-11.719,0.000
1743562701.395,-49.805,-37.109,-15.625,-14.160,0.000
1743562701.398,-43.457,-36.621,-17.578,-29.297,0.000
1743562701.402,-44.434,-39.062,-20.996,-24.902,0.000
1743562701.406,-36.621,-42.480,-22.949,-16.602,0.000
1743562701.410,-19.531,-41.016,-26.855,-15.137,0.000
1743562701.414,-10.742,-38.574,-25.879,-4.883,0.000
1743562701.418,-23.926,-34.180,-24.414,-7.324,0.000
1743562701.422,-31.738,-26.855,-25.391,-12.207,0.000
1743562701.426,-23.438,-27.344,-26.855,-15.137,0.000
1743562701.430,-16.113,-21.484,-23.926,-21.973,0.000
1743562701.434,-20.508,-15.625,-16.113,-24.902,0.000
1743562701.438,-16.113,-11.719,-15.137,-26.367,0.000
1743562701.441,-20.508,-19.043,-18.066,-24.902,0.000
1743562701.445,-29.297,-33.691,-27.832,-27.344,0.000
1743562701.449,-29.297,-32.227,-27.832,-19.043,0.000
1743562701.453,-25.879,-27.832,-26.367,-7.812,0.000
1743562701.457,-29.785,-22.461,-36.133,-16.113,0.000
1743562701.461,-19.043,-26.855,-47.852,-12.695,0.000
1743562701.465,-9.277,-27.344,-39.062,-13.184,0.000
1743562701.469,-17.578,-20.508,-24.902,-31.250,0.000
1743562701.472,-23.438,-18.555,-19.043,-38.086,0.000
1743562701.477,-12.207,-19.531,-15.137,-27.344,0.000
1743562701.481,-11.719,-26.855,-22.461,-28.809,0.000
1743562701.484,-30.762,-32.715,-32.227,-43.945,0.000
1743562701.488,-43.945,-31.250,-38.086,-45.898,0.000
1743562701.492,-35.645,-24.902,-36.133,-24.414,0.000
1743562701.496,-18.555,-18.555,-31.250,-8.789,0.000
1743562701.500,-18.066,-21.973,-30.273,-17.090,0.000
1743562701.504,-23.926,-28.809,-28.320,-25.879,0.000
1743562701.508,-31.738,-33.691,-31.738,-34.668,0.000
1743562701.512,-24.902,-32.227,-41.016,-33.203,0.000
1743562701.515,-28.320,-31.738,-37.598,-31.250,0.000
1743562701.519,-35.156,-33.203,-24.414,-32.227,0.000
1743562701.524,-32.227,-33.691,-20.020,-26.855,0.000
1743562701.527,-38.086,-35.645,-25.391,-26.367,0.000
1743562701.531,-35.156,-34.180,-33.203,-18.066,0.000
1743562701.535,-25.391,-36.133,-32.715,-29.785,0.000
1743562701.539,-14.648,-32.227,-25.391,-28.809,0.000
1743562701.543,-22.461,-35.156,-22.461,-26.367,0.000
1743562701.547,-30.273,-35.156,-18.555,-29.297,0.000
1743562701.551,-19.043,-24.414,-24.414,-20.996,0.000
1743562701.555,-32.715,-33.691,-48.340,-31.738,0.000
1743562701.558,-41.504,-46.387,-54.199,-36.621,0.000
1743562701.562,-28.320,-40.039,-37.598,-33.203,0.000
1743562701.566,-19.043,-36.133,-32.227,-25.391,0.000
1743562701.570,-12.695,-30.273,-31.250,-27.344,0.000
1743562701.574,-12.207,-20.020,-32.715,-45.898,0.000
1743562701.578,-30.273,-24.414,-24.414,-35.156,0.000
1743562701.582,-33.203,-25.391,-22.949,-34.180,0.000
1743562701.586,-17.578,-25.879,-30.762,-26.855,0.000
1743562701.590,-14.648,-28.320,-24.902,-20.020,0.000
1743562701.594,-27.832,-22.949,-20.508,-14.648,0.000
1743562701.598,-32.715,-29.785,-30.273,-30.273,0.000
1743562701.601,-26.367,-34.668,-37.109,-53.711,0.000
1743562701.605,-20.020,-24.902,-32.715,-46.875,0.000
1743562701.609,-8.789,-27.832,-26.855,-41.992,0.000
1743562701.613,-24.414,-25.391,-31.738,-29.785,0.000
1743562701.617,-43.457,-21.973,-31.250,-29.785,0.000
1743562701.621,-33.203,-27.344,-28.320,-25.879,0.000
1743562701.625,-34.668,-26.367,-28.809,-18.555,0.000
1743562701.629,-37.109,-20.020,-24.902,-19.531,0.000
1743562701.633,-23.438,-26.855,-27.832,-41.504,0.000
1743562701.637,-18.066,-26.855,-28.809,-46.387,0.000
1743562701.641,-34.668,-32.227,-36.133,-41.992,0.000
1743562701.644,-49.805,-38.086,-38.574,-36.133,0.000
1743562701.648,-46.875,-32.715,-30.273,-24.414,0.000
1743562701.652,-41.504,-32.227,-23.438,-38.086,0.000
1743562701.656,-36.621,-30.273,-27.832,-40.039,0.000
1743562701.660,-40.039,-32.715,-41.504,-36.621,0.000
1743562701.664,-27.344,-30.762,-37.598,-20.508,0.000
1743562701.668,-24.414,-20.020,-23.926,-6.836,0.000
1743562701.672,-30.273,-24.902,-26.855,-28.809,0.000
1743562701.676,-27.344,-36.621,-37.598,-36.133,0.000
1743562701.680,-31.738,-29.297,-31.738,-30.273,0.000
1743562701.684,-28.320,-20.508,-23.926,-36.133,0.000
1743562701.687,-33.203,-25.879,-30.762,-41.504,0.000
1743562701.691,-42.480,-28.809,-38.086,-32.227,0.000
1743562701.695,-42.969,-34.668,-40.039,-36.133,0.000
1743562701.699,-38.574,-37.109,-38.086,-40.527,0.000
1743562701.703,-31.738,-26.367,-31.738,-28.320,0.000
1743562701.707,-21.973,-21.484,-27.832,-20.996,0.000
1743562701.711,0.000,-26.855,-39.062,-17.578,0.000
1743562701.715,0.000,-37.598,-47.363,-21.484,0.000
1743562701.719,0.000,-37.598,-44.434,-22.461,0.000
1743562701.723,0.000,-29.785,-40.527,-22.461,0.000
1743562701.727,0.000,-25.879,-32.227,-29.785,0.000
1743562701.730,0.000,-19.531,-32.227,-34.180,0.000
1743562701.734,0.000,-23.438,-35.156,-29.785,0.000
1743562701.738,0.000,-26.367,-28.809,-31.738,0.000
1743562701.742,0.000,-26.855,-23.438,-24.414,0.000
1743562701.746,0.000,-31.250,-25.391,-18.555,0.000
1743562701.750,0.000,-27.344,-17.090,-23.926,0.000
1743562701.754,0.000,-30.762,-21.484,-20.020,0.000
1743562701.758,-37.598,-33.691,-26.367,-14.648,0.000
1743562701.762,-37.598,-39.551,-28.320,-21.973,0.000
1743562701.766,-44.434,-36.621,-29.785,-30.273,0.000
1743562701.769,-40.527,-28.320,-22.461,-29.785,0.000
1743562701.773,-31.250,-30.273,-28.320,-20.996,0.000
1743562701.777,-52.246,-38.574,-28.320,-25.879,0.000
1743562701.781,-53.711,-45.898,-19.531,-25.391,0.000
1743562701.785,-22.461,-38.574,-21.973,0.488,0.000
1743562701.789,-12.695,-32.227,-26.367,-5.859,0.000
1743562701.793,-27.832,-41.992,-31.738,-23.926,0.000
1743562701.797,-34.668,-45.898,-32.715,-27.344,0.000
1743562701.801,-35.645,-40.039,-23.438,-33.203,0.000
1743562701.805,-23.438,-32.715,-18.555,-22.461,0.000
1743562701.809,-28.320,-25.879,-16.602,-13.672,0.000
1743562701.812,-37.109,-21.484,-20.020,-25.879,0.000
1743562701.816,-33.203,-27.832,-20.020,-21.973,0.000
1743562701.820,-35.645,-28.809,-23.438,-15.137,0.000
1743562701.824,-28.809,-19.043,-22.949,-11.719,0.000
1743562701.828,-21.973,-17.578,-14.160,1.465,0.000
1743562701.832,-33.203,-29.297,-30.762,-11.719,0.000
1743562701.836,-28.809,-33.691,-37.109,-12.695,0.000
1743562701.840,-15.625,-27.344,-20.508,-0.488,0.000
1743562701.844,-25.879,-31.738,-25.391,-22.949,0.000
1743562701.847,-23.438,-36.621,-35.645,-34.668,0.000
1743562701.852,-18.066,-38.086,-33.203,-24.414,0.000
1743562701.855,-11.719,-32.715,-41.016,-24.902,0.000
1743562701.859,-13.672,-17.578,-34.668,-28.320,0.000
1743562701.863,-25.879,-14.648,-25.391,-31.738,0.000
1743562701.867,-25.391,-23.438,-23.438,-25.879,0.000
1743562701.871,-15.625,-24.902,-17.090,-18.555,0.000
1743562701.875,-19.531,-21.973,-17.578,-13.672,0.000
1743562701.879,-23.926,-15.137,-15.137,-8.789,0.000
1743562701.883,-17.090,-19.043,-14.160,-8.301,0.000
1743562701.886,-32.227,-30.762,-14.648,-27.344,0.000
1743562701.890,-39.062,-37.598,-16.602,-29.785,0.000
1743562701.894,-34.180,-35.156,-21.973,-17.578,0.000
1743562701.898,0.000,-28.809,-26.367,-7.812,0.000
1743562701.902,0.000,-26.367,-25.391,-21.484,0.000
1743562701.906,0.000,-23.926,-31.250,-38.574,0.000
1743562701.910,0.000,-22.461,-32.715,-37.109,0.000
1743562701.914,0.000,-28.320,-34.180,-33.203,0.000
1743562701.918,0.000,-33.203,-40.039,-19.043,0.000
1743562701.922,0.000,-28.320,-29.297,-23.438,0.000
1743562701.926,0.000,-32.715,-17.578,-29.785,0.000
1743562701.929,0.000,-35.156,-20.508,-24.414,0.000
1743562701.933,0.000,-27.832,-19.043,-17.578,0.000
1743562701.937,0.000,-21.484,-22.949,-23.438,0.000
1743562701.941,0.000,-20.996,-29.297,-16.602,0.000
1743562701.945,-20.996,-23.438,-25.391,-9.766,0.000
1743562701.949,-27.832,-24.414,-26.855,-21.484,0.000
1743562701.953,-30.273,-22.949,-34.668,-21.973,0.000
1743562701.957,-31.738,-31.738,-33.203,-36.621,0.000
1743562701.961,-38.086,-36.621,-23.926,-41.504,0.000
1743562701.965,-22.949,-23.926,-22.461,-32.227,0.000
1743562701.969,-20.508,-23.438,-24.414,-36.621,0.000
1743562701.972,-28.809,-35.645,-25.391,-26.367,0.000
1743562701.976,-22.461,-28.809,-23.438,-5.859,0.000
1743562701.980,-19.043,-31.250,-23.926,-10.742,0.000
1743562701.984,-22.461,-43.945,-24.902,-18.555,0.000
1743562701.988,-21.973,-35.156,-27.832,-27.344,0.000
1743562701.992,-42.969,-27.832,-40.527,-39.551,0.000
1743562701.996,-53.711,-29.785,-33.203,-37.109,0.000
1743562702.000,-43.457,-34.668,-25.391,-30.273,0.000
1743562702.004,-52.734,-39.062,-31.738,-40.039,0.000
1743562702.008,-43.457,-35.156,-30.762,-49.805,0.000
1743562702.012,-28.809,-33.203,-28.320,-43.457,0.000
1743562702.015,-41.992,-36.621,-26.855,-48.340,0.000
1743562702.019,-41.992,-37.598,-24.902,-45.410,0.000
1743562702.023,-39.551,-41.504,-25.879,-30.273,0.000
1743562702.027,-50.781,-38.086,-31.250,-30.273,0.000
1743562702.031,-35.156,-27.832,-28.320,-32.715,0.000
1743562702.035,-27.344,-29.785,-24.902,-31.250,0.000
1743562702.039,-28.809,-26.855,-27.344,-23.438,0.000
1743562702.043,-27.832,-15.137,-18.555,-24.902,0.000
1743562702.047,-34.180,-26.367,-18.555,-35.645,0.000
1743562702.051,-35.645,-33.691,-27.832,-36.133,0.000
1743562702.055,-28.809,-25.879,-28.809,-38.086,0.000
1743562702.058,-29.785,-25.879,-28.809,-34.668,0.000
1743562702.062,-32.227,-34.668,-28.320,-25.879,0.000
1743562702.066,-22.461,-30.762,-25.879,-25.879,0.000
1743562702.070,-21.484,-29.297,-30.273,-23.926,0.000
1743562702.074,-37.598,-26.367,-32.715,-27.344,0.000
1743562702.078,-42.480,-27.832,-33.203,-45.410,0.000
1743562702.082,-36.133,-27.344,-26.855,-37.598,0.000
1743562702.086,-39.062,-26.855,-31.250,-29.297,0.000
1743562702.090,-39.062,-24.902,-35.645,-32.715,0.000
1743562702.094,-27.832,-22.461,-37.598,-32.227,0.000
1743562702.098,-31.738,-32.227,-40.039,-34.668,0.000
1743562702.101,-37.109,-27.832,-35.156,-24.902,0.000
1743562702.105,-33.691,-31.250,-24.902,-19.043,0.000
1743562702.109,-26.367,-37.598,-26.855,-46.875,0.000
1743562702.113,-15.137,-28.320,-34.668,-38.086,0.000
1743562702.117,-21.484,-25.391,-38.086,-29.785,0.000
1743562702.121,-29.785,-28.809,-41.016,-36.621,0.000
1743562702.125,-31.250,-21.973,-35.645,-34.180,0.000
1743562702.129,-44.922,-30.273,-31.250,-48.828,0.000
1743562702.133,-41.992,-36.133,-25.391,-42.969,0.000
1743562702.137,-36.621,-29.297,-25.391,-54.688,0.000
1743562702.141,-44.922,-25.879,-27.832,-46.875,0.000
1743562702.144,-31.250,-28.809,-36.133,-32.715,0.000
1743562702.148,-25.879,-33.691,-46.387,-33.691,0.000
1743562702.152,-36.621,-25.879,-31.250,-30.762,0.000
1743562702.156,-39.062,-29.297,-27.344,-34.668,0.000
1743562702.160,-35.156,-38.086,-32.227,-29.297,0.000
1743562702.164,-42.480,-37.109,-21.973,-25.879,0.000
1743562702.168,-62.012,-41.992,-29.785,-46.875,0.000
1743562702.172,-51.270,-39.062,-33.691,-46.387,0.000
1743562702.175,-40.039,-22.949,-19.531,-27.832,0.000
1743562702.180,-39.551,-23.926,-30.273,-41.504,0.000
1743562702.184,-45.410,-34.668,-41.016,-53.223,0.000
1743562702.187,-51.758,-37.109,-27.832,-44.922,0.000
1743562702.191,-47.363,-32.227,-23.926,-37.109,0.000
1743562702.195,-40.527,-30.273,-33.203,-35.645,0.000
1743562702.199,-45.410,-26.855,-27.832,-44.434,0.000
1743562702.203,-39.551,-22.949,-18.066,-46.387,0.000
1743562702.207,-38.574,-33.203,-20.508,-33.203,0.000
1743562702.211,-40.527,-30.762,-20.508,-38.574,0.000
1743562702.215,-26.855,-26.367,-14.648,-42.480,0.000
1743562702.218,-25.879,-31.250,-26.855,-34.668,0.000
1743562702.222,-41.992,-24.414,-40.527,-34.180,0.000
1743562702.227,-40.039,-22.461,-40.527,-33.203,0.000
1743562702.230,-38.574,-32.715,-46.875,-35.156,0.000
1743562702.234,-38.574,-38.574,-38.574,-47.363,0.000
1743562702.238,-32.227,-33.203,-27.344,-32.715,0.000
1743562702.242,-41.016,-24.414,-33.691,-20.020,0.000
1743562702.246,-42.969,-18.066,-29.297,-32.715,0.000
1743562702.250,-38.086,-23.926,-23.926,-32.715,0.000
1743562702.254,-25.391,-34.668,-26.855,-28.320,0.000
1743562702.258,-24.414,-35.156,-23.926,-26.855,0.000
1743562702.261,-34.668,-32.715,-22.461,-20.996,0.000
1743562702.265,-35.645,-33.203,-36.133,-21.973,0.000
1743562702.269,-32.715,-32.227,-32.715,-29.785,0.000
1743562702.273,-35.645,-31.250,-25.879,-22.949,0.000
1743562702.277,-32.715,-36.133,-36.621,-15.137,0.000
1743562702.281,-25.879,-32.227,-36.621,-33.691,0.000
1743562702.285,-26.855,-31.738,-37.109,-45.898,0.000
1743562702.289,-28.320,-32.715,-38.574,-34.180,0.000
1743562702.293,-22.461,-26.367,-29.785,-30.762,0.000
1743562702.297,-18.066,-32.715,-28.809,-20.996,0.000
1743562702.301,-41.016,-45.898,-34.668,-44.434,0.000
1743562702.304,-42.480,-39.551,-33.203,-40.527,0.000
1743562702.308,-30.273,-35.156,-29.297,-26.367,0.000
1743562702.312,-31.738,-33.203,-27.832,-38.574,0.000
1743562702.316,-30.762,-20.020,-23.438,-31.250,0.000
1743562702.320,-36.621,-23.438,-21.973,-27.344,0.000
1743562702.324,-35.156,-31.250,-21.484,-28.320,0.000
1743562702.328,-42.480,-31.250,-22.949,-30.762,0.000
1743562702.332,-49.805,-32.715,-30.273,-36.133,0.000
1743562702.336,-32.227,-37.109,-30.273,-32.715,0.000
1743562702.340,-27.832,-41.992,-35.156,-30.762,0.000
1743562702.344,-26.855,-36.621,-38.086,-29.297,0.000
1743562702.347,-24.902,-35.156,-31.738,-22.949,0.000
1743562702.351,-27.832,-34.180,-28.809,-20.996,0.000
1743562702.355,-19.043,-23.438,-18.066,-22.461,0.000
1743562702.359,-21.484,-23.438,-8.301,-19.043,0.000
1743562702.363,-17.090,-23.438,-12.695,-13.672,0.000
1743562702.367,-8.301,-20.020,-15.625,-12.695,0.000
1743562702.371,-12.695,-29.297,-12.695,-16.113,0.000
1743562702.375,-12.207,-32.227,-10.254,-16.113,0.000
1743562702.379,-21.484,-26.855,-18.555,-21.484,0.000
1743562702.383,-36.133,-26.367,-22.949,-28.320,0.000
1743562702.387,-29.785,-29.785,-26.367,-21.973,0.000
1743562702.390,-28.320,-30.762,-38.086,-16.113,0.000
1743562702.394,-37.598,-35.645,-43.457,-30.273,0.000
1743562702.398,-40.527,-41.504,-40.039,-40.527,0.000
1743562702.402,-34.668,-29.785,-26.367,-39.551,0.000
1743562702.406,-36.133,-21.973,-24.414,-45.898,0.000
1743562702.410,-35.156,-20.996,-28.320,-50.781,0.000
1743562702.414,-22.461,-22.461,-29.297,-40.527,0.000
1743562702.418,-35.645,-30.762,-31.738,-40.527,0.000
1743562702.422,-52.734,-28.809,-40.527,-41.504,0.000
1743562702.426,-48.340,-24.902,-37.598,-23.438,0.000
1743562702.430,-47.363,-33.691,-28.809,-22.949,0.000
1743562702.433,-45.898,-34.668,-31.250,-29.785,0.000
1743562702.437,-41.016,-32.227,-37.109,-32.227,0.000
1743562702.441,-35.645,-39.062,-35.156,-32.715,0.000
1743562702.445,-30.762,-36.621,-31.250,-33.203,0.000
1743562702.449,-31.250,-24.414,-31.250,-36.621,0.000
1743562702.453,-22.949,-20.020,-26.367,-33.203,0.000
1743562702.457,-26.855,-32.715,-30.273,-39.551,0.000
1743562702.461,-38.086,-37.598,-37.598,-43.457,0.000
1743562702.465,-39.062,-33.203,-37.598,-54.688,0.000
1743562702.469,-41.016,-29.785,-38.574,-54.688,0.000
1743562702.473,-41.504,-30.762,-28.320,-32.715,0.000
1743562702.476,-43.945,-37.109,-22.461,-30.762,0.000
1743562702.480,-36.133,-33.691,-23.926,-33.691,0.000
1743562702.484,-28.320,-29.785,-25.879,-19.043,0.000
1743562702.488,-25.391,-32.715,-34.180,-25.391,0.000
1743562702.492,-17.090,-34.180,-39.551,-38.574,0.000
1743562702.496,-8.301,-25.879,-34.180,-24.414,0.000
1743562702.500,-10.742,-20.020,-28.809,-19.531,0.000
1743562702.504,-33.203,-25.879,-31.250,-29.297,0.000
1743562702.508,-42.480,-33.203,0.000,-32.715,0.000
1743562702.512,-24.414,-31.738,0.000,-29.297,0.000
1743562702.516,-21.973,-32.715,0.000,-39.551,0.000
1743562702.519,-34.180,-37.109,0.000,-42.969,0.000
1743562702.523,-27.344,-31.738,0.000,-33.203,0.000
1743562702.527,-19.531,-28.320,0.000,-26.367,0.000
1743562702.531,-34.668,-35.156,0.000,-21.484,0.000
1743562702.535,-31.250,-35.645,0.000,-25.879,0.000
1743562702.539,-12.695,-33.203,0.000,-35.645,0.000
1743562702.543,-18.555,-27.832,0.000,-31.250,0.000
1743562702.547,-33.203,-33.203,0.000,-28.320,0.000
1743562702.550,-38.574,-39.062,0.000,-43.945,0.000
1743562702.555,-30.762,-39.062,-36.621,-37.109,0.000
1743562702.559,-30.762,-41.016,-31.738,-7.324,0.000
1743562702.562,-35.156,-33.691,-32.227,-12.695,0.000
1743562702.566,-32.715,-27.832,-24.902,-26.855,0.000
1743562702.570,-25.391,-31.250,-20.508,-34.180,0.000
1743562702.574,-27.832,-29.785,-21.484,-34.180,0.000
1743562702.578,-27.344,-32.227,-23.926,-22.461,0.000
1743562702.582,-23.926,-34.668,-24.902,-23.438,0.000
1743562702.586,-17.090,-26.855,-23.438,-32.715,0.000
1743562702.590,-12.207,-20.996,-26.367,-21.973,0.000
1743562702.593,-20.508,-25.879,-35.156,-20.996,0.000
1743562702.597,-22.461,-27.344,-32.715,-24.902,0.000
1743562702.602,-28.809,-25.391,-27.832,-24.414,0.000
1743562702.605,-34.668,-29.297,-30.762,-34.180,0.000
1743562702.609,-39.551,-30.762,-28.320,-31.250,0.000
1743562702.613,-33.691,-26.855,-19.531,-26.367,0.000
1743562702.617,-27.832,-32.227,-22.461,-25.879,0.000
1743562702.621,-14.648,-36.621,-25.879,-23.926,0.000
1743562702.625,-16.602,-35.156,-23.926,-17.090,0.000
1743562702.629,-23.438,-36.621,-29.297,-10.742,0.000
1743562702.633,-27.344,-30.273,-31.250,-19.531,0.000
1743562702.636,-32.715,-23.926,-23.438,-35.645,0.000
1743562702.640,-19.043,-20.020,-20.508,-30.762,0.000
1743562702.644,-32.227,-25.391,-26.367,-20.020,0.000
1743562702.648,-49.805,-35.645,-26.367,-24.414,0.000
1743562702.652,-44.922,-39.551,-30.762,-21.973,0.000
1743562702.656,-23.438,-35.156,-30.273,-28.809,0.000
1743562702.660,-16.113,-33.691,-21.973,-38.086,0.000
1743562702.664,-29.785,-39.551,-19.531,-20.996,0.000
1743562702.668,-29.297,-36.621,-26.855,-19.043,0.000
1743562702.672,-33.203,-37.598,-34.180,-35.156,0.000
1743562702.676,-41.504,-37.598,-30.762,-39.551,0.000
1743562702.679,-31.738,-29.785,-26.367,-24.902,0.000
1743562702.683,-24.902,-30.762,-22.461,-24.414,0.000
1743562702.687,-36.133,-35.645,-31.250,-49.316,0.000
1743562702.691,-41.992,-31.738,-28.809,-36.133,0.000
1743562702.695,0.000,-27.832,-23.438,-18.555,0.000
1743562702.699,0.000,-25.391,-30.762,-31.738,0.000
1743562702.703,0.000,-14.648,-24.902,-34.180,0.000
1743562702.707,0.000,-17.090,-17.090,-26.367,0.000
1743562702.711,0.000,-33.691,-20.996,-30.273,0.000
1743562702.715,0.000,-36.133,-24.414,-33.203,0.000
1743562702.719,0.000,-27.832,-16.602,-16.602,0.000
1743562702.722,0.000,-32.715,-21.484,-11.230,0.000
1743562702.726,0.000,-37.109,-33.203,-24.902,0.000
1743562702.730,0.000,-23.438,-31.250,-35.645,0.000
1743562702.734,0.000,-24.902,-30.762,-33.691,0.000
1743562702.738,0.000,-35.156,-31.250,-26.855,0.000
1743562702.742,-36.621,-32.715,-25.879,-30.762,0.000
1743562702.746,-32.227,-32.715,-25.879,-33.203,0.000
1743562702.750,-44.922,-33.203,-27.344,-35.645,0.000
1743562702.754,-48.340,-38.086,-30.273,-25.391,0.000
1743562702.758,-39.551,-35.156,-27.344,-15.137,0.000
1743562702.762,-31.250,-22.949,-15.625,-23.926,0.000
1743562702.765,-19.043,-28.320,-20.996,-27.344,0.000
1743562702.769,-26.855,-34.180,-27.344,-28.809,0.000
1743562702.773,-44.434,-24.414,-23.438,-36.133,0.000
1743562702.777,-51.270,-28.809,-26.367,-32.227,0.000
1743562702.781,-40.527,-31.738,-23.926,-32.715,0.000
1743562702.785,-32.227,-29.297,-28.809,-27.832,0.000
1743562702.789,-38.574,-34.668,-32.715,-15.625,0.000
1743562702.793,-30.273,-34.668,-33.203,-28.320,0.000
1743562702.797,-30.762,-38.574,-31.738,-35.156,0.000
1743562702.801,-33.203,-32.715,-28.320,-34.668,0.000
1743562702.805,-19.531,-20.996,-33.203,-25.879,0.000
1743562702.808,-17.090,-24.414,-32.715,-28.320,0.000
1743562702.812,-20.508,-26.855,-23.438,-35.645,0.000
1743562702.816,-24.902,-22.949,-17.578,-29.785,0.000
1743562702.820,-19.043,-22.461,-22.461,-27.344,0.000
1743562702.824,-22.461,-20.020,-35.156,-22.949,0.000
1743562702.828,-35.156,-24.414,-34.668,-20.508,0.000
1743562702.832,-38.086,-28.809,-30.273,-23.438,0.000
1743562702.836,-34.180,-28.320,-31.738,-41.504,0.000
1743562702.840,-43.945,-31.738,-27.832,-44.922,0.000
1743562702.844,-46.387,-33.203,-28.809,-37.598,0.000
1743562702.847,-34.668,-31.738,-40.039,-42.480,0.000
1743562702.851,-31.250,-29.297,-35.645,-35.645,0.000
1743562702.855,-36.621,-28.809,-26.855,-25.879,0.000
1743562702.859,-32.715,-29.785,-24.902,-19.531,0.000
1743562702.863,-20.020,-26.367,-16.602,-6.836,0.000
1743562702.867,-13.672,-21.973,-13.672,-8.301,0.000
1743562702.871,-23.438,-30.273,-27.344,-31.250,0.000
1743562702.875,-31.738,-33.203,-29.297,-31.738,0.000
1743562702.879,-28.320,-30.273,-20.508,-22.461,0.000
1743562702.883,0.000,-32.227,-20.996,-27.832,0.000
1743562702.887,0.000,-30.273,-24.902,-20.508,0.000
1743562702.890,0.000,-26.367,-31.250,-12.695,0.000
1743562702.894,0.000,-29.297,-37.109,-41.992,0.000
1743562702.898,0.000,-34.668,-39.551,-53.223,0.000
1743562702.902,0.000,-32.227,-40.527,-41.992,0.000
1743562702.906,0.000,-23.926,-39.551,-37.109,0.000
1743562702.910,0.000,-24.902,-47.363,-50.293,0.000
1743562702.914,0.000,-24.414,-53.711,-65.918,0.000
1743562702.918,0.000,-23.438,-45.898,-68.359,0.000
1743562702.922,0.000,-24.414,-44.922,-65.430,0.000
1743562702.925,0.000,-17.090,-45.410,-51.758,0.000
1743562702.930,-58.594,-24.414,-41.992,-61.523,0.000
1743562702.933,-58.105,-29.785,-45.410,-63.477,0.000
1743562702.937,-50.293,-14.648,-40.527,-53.711,0.000
1743562702.941,-41.016,-13.184,-33.691,-53.223,0.000
1743562702.945,-46.875,-25.879,-31.250,-46.387,0.000
1743562702.949,-50.781,-25.879,-31.250,-41.504,0.000
1743562702.953,-40.527,-28.809,-36.133,-40.039,0.000
1743562702.957,-32.715,-29.785,-34.668,-32.715,0.000
1743562702.961,-27.344,-23.926,-38.086,-38.574,0.000
1743562702.964,-26.855,-19.531,-42.480,-37.598,0.000
1743562702.968,-21.484,-21.973,-45.410,-37.109,0.000
1743562702.972,-15.625,-26.367,-43.945,-41.016,0.000
1743562702.976,-19.043,-29.297,-37.109,-25.879,0.000
1743562702.980,-22.949,-30.273,-33.691,-24.414,0.000
1743562702.984,-31.738,-31.738,-33.203,-33.203,0.000
1743562702.988,-39.062,-36.621,-29.785,-35.156,0.000
1743562702.992,-21.484,-21.973,-18.555,-20.020,0.000
1743562702.996,-6.836,-20.996,-23.438,-12.207,0.000
1743562703.000,-18.066,-33.203,-36.621,-28.320,0.000
1743562703.004,-27.832,-37.109,-39.551,-37.109,0.000
1743562703.007,-18.555,-27.832,-31.738,-28.320,0.000
1743562703.011,-16.113,-20.508,-36.621,-14.160,0.000
1743562703.015,-16.113,-22.461,-46.875,-9.766,0.000
1743562703.019,-25.879,-28.809,-41.016,-29.785,0.000
1743562703.023,0.000,-29.297,-41.504,-33.691,0.000
1743562703.027,0.000,-28.320,-40.039,-19.043,0.000
1743562703.031,0.000,-26.367,-27.832,-24.902,0.000
1743562703.035,0.000,-24.414,-30.273,-40.527,0.000
1743562703.039,0.000,-25.391,-29.785,-40.527,0.000
1743562703.043,0.000,-24.414,-18.066,-27.832,0.000
1743562703.047,0.000,-30.273,-19.531,-26.855,0.000
1743562703.050,0.000,-36.133,-25.391,-29.785,0.000
1743562703.054,0.000,-32.715,-26.855,-41.016,0.000
1743562703.058,0.000,-30.273,-31.738,-36.133,0.000
1743562703.062,0.000,-32.227,-38.574,-42.480,0.000
1743562703.066,0.000,-30.273,-39.062,-55.176,0.000
1743562703.070,-48.828,-26.367,-34.668,-38.574,0.000
1743562703.074,-38.574,-24.414,-32.227,-30.762,0.000
1743562703.078,-21.973,-23.438,-28.320,-31.738,0.000
1743562703.082,-18.555,-24.902,-22.461,-34.668,0.000
1743562703.086,-23.438,-23.926,-20.996,-37.109,0.000
1743562703.090,-26.367,-25.391,-24.414,-26.367,0.000
1743562703.093,-30.762,-29.785,-29.785,-24.902,0.000
1743562703.097,-34.180,-29.785,-34.180,-21.973,0.000
1743562703.101,-35.645,-25.879,-32.715,-22.461,0.000
1743562703.105,-33.691,-33.691,-31.250,-25.879,0.000
1743562703.109,-40.039,-35.156,-23.926,-14.648,0.000
1743562703.113,-36.621,-34.668,-19.531,-7.324,0.000
1743562703.117,-31.738,-37.598,-27.832,-28.320,0.000
1743562703.121,-43.945,-32.715,-30.762,-43.457,0.000
1743562703.125,-38.086,-29.297,-24.902,-41.504,0.000
1743562703.129,-21.973,-28.809,-33.203,-27.344,0.000
1743562703.133,-35.156,-30.762,-45.410,-32.715,0.000
1743562703.136,-39.551,-30.273,-34.668,-45.410,0.000
1743562703.140,-35.645,-34.180,-25.879,-38.086,0.000
1743562703.144,-25.879,-28.809,-20.508,-36.621,0.000
1743562703.148,-23.438,-31.250,-30.273,-43.945,0.000
1743562703.152,-26.367,-39.551,-36.621,-28.809,0.000
1743562703.156,-24.902,-28.320,-30.273,-31.250,0.000
1743562703.160,-18.066,-24.414,-28.320,-36.621,0.000
1743562703.164,-16.113,-39.551,-24.414,-10.742,0.000
1743562703.168,-18.555,-35.645,-21.973,-6.836,0.000
1743562703.172,-24.902,-28.320,-27.832,-19.531,0.000
1743562703.176,-23.438,-29.785,-28.320,-26.855,0.000
1743562703.179,-17.578,-30.273,-23.438,-38.086,0.000
1743562703.183,-27.832,-24.414,-24.902,-30.273,0.000
1743562703.187,-38.086,-27.832,-28.320,-39.551,0.000
1743562703.191,-28.320,-31.738,-30.762,-45.410,0.000
1743562703.195,-17.090,-33.203,-28.809,-36.621,0.000
1743562703.199,-24.414,-32.227,-18.066,-42.480,0.000
1743562703.203,-32.227,-29.297,-15.137,-41.504,0.000
1743562703.207,-30.762,-37.109,-21.973,-40.527,0.000
1743562703.211,-27.344,-36.621,-24.414,-41.992,0.000
1743562703.215,-26.855,-20.996,-16.113,-26.855,0.000
1743562703.219,-26.855,-19.043,-24.902,-29.785,0.000
1743562703.222,-22.461,-22.949,-36.621,-51.270,0.000
1743562703.226,-39.062,-22.949,-30.762,-43.945,0.000
1743562703.230,-43.945,-19.531,-33.691,-43.945,0.000
1743562703.234,-38.086,-21.973,-40.039,-40.527,0.000
1743562703.238,-49.805,-34.180,-31.250,-26.855,0.000
1743562703.242,-38.574,-35.156,-18.555,-29.785,0.000
1743562703.246,-24.902,-26.855,-15.137,-32.715,0.000
1743562703.250,-16.113,-24.414,-12.207,-20.508,0.000
1743562703.254,-6.348,-22.949,-17.578,-17.090,0.000
1743562703.258,-20.508,-24.902,-30.273,-24.414,0.000
1743562703.262,-20.020,-34.180,-29.297,-34.180,0.000
1743562703.265,-19.531,-34.668,-27.832,-27.832,0.000
1743562703.269,-29.785,-30.762,-26.855,-20.996,0.000
1743562703.273,-27.344,-34.180,-28.320,-25.879,0.000
1743562703.277,-30.273,-31.738,-27.344,-28.320,0.000
1743562703.281,-31.250,-27.832,-30.273,-34.668,0.000
1743562703.285,-23.926,-22.461,-39.551,-23.926,0.000
1743562703.289,-20.996,-24.902,-39.551,-25.391,0.000
1743562703.293,-17.578,-29.785,-35.156,-29.785,0.000
1743562703.296,-19.531,-30.273,-32.227,-31.250,0.000
1743562703.300,-20.508,-27.344,-28.809,-22.461,0.000
1743562703.305,-15.137,-25.879,-19.531,-18.555,0.000
1743562703.308,-12.207,-26.367,-13.184,-29.297,0.000
1743562703.312,-26.855,-34.180,-23.438,-40.039,0.000
1743562703.316,-37.109,-33.203,-21.484,-28.320,0.000
1743562703.320,-27.344,-30.273,-16.602,-10.254,0.000
1743562703.324,-19.043,-27.344,-21.973,-15.137,0.000
1743562703.328,-32.227,-27.832,-20.020,-39.062,0.000
1743562703.332,-36.621,-34.668,-28.320,-36.621,0.000
1743562703.336,-22.461,-34.180,-36.133,-17.090,0.000
1743562703.339,-21.973,-35.156,-35.156,-20.508,0.000
1743562703.343,-20.996,-30.762,-36.133,-21.484,0.000
1743562703.347,-25.879,-28.809,-26.367,-13.184,0.000
1743562703.351,-24.414,-30.762,-15.137,-22.461,0.000
1743562703.355,-11.230,-26.855,-16.113,-13.184,0.000
1743562703.359,-17.090,-22.949,-20.020,-3.418,0.000
1743562703.363,-20.020,-25.879,-17.090,-4.883,0.000
1743562703.367,-13.672,-33.203,-12.207,-2.441,0.000
1743562703.371,-22.949,-37.598,-19.531,-12.695,0.000
1743562703.375,-34.180,-32.227,-23.438,-26.367,0.000
1743562703.379,-29.785,-28.809,-26.367,-29.297,0.000
1743562703.382,-20.508,-28.320,-35.156,-24.414,0.000
1743562703.386,-26.855,-22.949,-35.645,-28.809,0.000
1743562703.390,-26.855,-27.832,-35.156,-28.809,0.000
1743562703.394,-22.949,-31.250,-27.832,-12.695,0.000
1743562703.398,0.000,-26.367,-26.367,-22.949,0.000
1743562703.402,0.000,-31.250,-29.297,-35.645,0.000
1743562703.406,0.000,-38.574,-30.762,-28.320,0.000
1743562703.410,0.000,-31.250,-32.715,-31.250,0.000
1743562703.414,0.000,-22.949,-30.762,-32.715,0.000
1743562703.418,0.000,-23.438,-23.438,-25.879,0.000
1743562703.422,0.000,-26.367,-18.066,-8.301,0.000
1743562703.425,0.000,-34.180,-30.762,-10.254,0.000
1743562703.429,0.000,-32.715,-35.156,-23.438,0.000
1743562703.433,0.000,-24.902,-22.949,-22.461,0.000
1743562703.437,0.000,-32.227,-27.832,-28.320,0.000
1743562703.441,0.000,-33.691,-39.551,-26.855,0.000
1743562703.445,-26.855,-31.250,0.000,-28.809,0.000
1743562703.449,-27.832,-35.156,0.000,-46.875,0.000
1743562703.453,-38.086,-29.785,0.000,-46.387,0.000
1743562703.457,-31.250,-22.461,0.000,-28.320,0.000
1743562703.461,-32.227,-28.320,0.000,-27.832,0.000
1743562703.465,-33.203,-28.809,0.000,-40.039,0.000
1743562703.468,-38.574,-30.273,0.000,-40.527,0.000
1743562703.472,-29.785,-24.902,0.000,-29.297,0.000
1743562703.476,-22.949,-16.602,0.000,-27.832,0.000
1743562703.480,-33.203,-27.832,0.000,-33.691,0.000
1743562703.484,-39.062,-33.691,0.000,-37.109,0.000
1743562703.488,-46.387,-34.668,0.000,-41.504,0.000
1743562703.492,-38.086,-36.621,-39.062,-33.203,0.000
1743562703.496,-25.879,-32.227,-27.344,-30.762,0.000
1743562703.500,-26.855,-27.832,-24.414,-29.785,0.000
1743562703.504,-19.043,-28.320,-24.902,-22.949,0.000
1743562703.508,-16.602,-22.949,-21.973,-12.695,0.000
1743562703.511,-27.344,-26.855,-24.902,-13.184,0.000
1743562703.515,-17.090,-30.762,-29.785,-15.137,0.000
1743562703.519,-22.949,-28.809,-32.227,-18.066,0.000
1743562703.523,-47.363,-33.203,-35.645,-33.203,0.000
1743562703.527,-39.062,-36.133,-39.062,-33.203,0.000
1743562703.531,-29.785,-39.062,-33.203,-24.414,0.000
1743562703.535,-33.203,-40.039,-34.180,-31.250,0.000
1743562703.539,-35.645,-34.668,-29.785,-28.320,0.000
1743562703.543,-24.414,-27.832,-15.625,-20.508,0.000
1743562703.547,-29.785,-34.180,-24.902,-42.480,0.000
1743562703.551,-33.691,-34.668,-32.715,-39.062,0.000
1743562703.554,-25.879,-30.273,-29.297,-33.691,0.000
1743562703.558,-26.367,-27.832,-32.715,-40.039,0.000
1743562703.562,-25.879,-31.738,-36.133,-43.945,0.000
1743562703.566,-33.203,-33.203,-37.109,-42.969,0.000
1743562703.570,-41.992,-28.809,-37.598,-46.875,0.000
1743562703.574,-48.340,-28.809,-27.832,-44.922,0.000
1743562703.578,-44.434,-31.738,-20.020,-40.039,0.000
1743562703.582,-48.340,-40.527,-32.227,-34.180,0.000
1743562703.586,-48.340,-38.574,-26.855,-19.043,0.000
1743562703.590,-37.109,-29.785,-19.043,-25.391,0.000
1743562703.594,-24.414,-34.668,-24.902,-34.668,0.000
1743562703.597,-32.227,-38.574,-28.809,-39.062,0.000
1743562703.601,-42.480,-31.738,-22.949,-34.668,0.000
1743562703.605,-32.227,-23.438,-16.113,-31.250,0.000
1743562703.609,-32.227,-27.832,-24.414,-24.414,0.000
1743562703.613,-29.785,-33.203,-33.203,-20.996,0.000
1743562703.617,-16.113,-26.855,-22.949,-20.996,0.000
1743562703.621,-14.160,-19.531,-15.137,-11.230,0.000
1743562703.625,-20.996,-22.949,-24.414,-8.789,0.000
1743562703.628,-25.879,-32.227,-30.273,-25.391,0.000
1743562703.633,-26.367,-33.691,-28.320,-36.621,0.000
1743562703.637,-18.555,-26.367,-25.391,-31.738,0.000
1743562703.640,-20.996,-26.855,-22.461,-20.508,0.000
1743562703.644,-45.898,-36.621,-25.391,-32.715,0.000
1743562703.648,-43.457,-29.297,-20.996,-29.785,0.000
1743562703.652,-33.203,-24.902,-15.137,-14.648,0.000
1743562703.656,-43.457,-30.273,-15.137,-14.648,0.000
1743562703.660,-46.875,-27.832,-17.090,-29.297,0.000
1743562703.664,-43.945,-32.227,-25.879,-45.898,0.000
1743562703.668,-39.062,-32.715,-30.762,-36.621,0.000
1743562703.671,-42.480,-23.438,-27.832,-45.898,0.000
1743562703.675,-46.387,-22.949,-27.832,-59.570,0.000
1743562703.680,-41.016,-33.691,-25.879,-40.527,0.000
1743562703.683,-26.367,-33.691,-16.602,-24.902,0.000
1743562703.687,-30.273,-27.344,-12.695,-25.391,0.000
1743562703.691,-43.945,-26.367,-18.555,-26.367,0.000
1743562703.695,-34.668,-31.250,-20.020,-19.043,0.000
1743562703.699,-25.879,-29.785,-21.484,-20.020,0.000
1743562703.703,-27.344,-24.902,-24.414,-19.043,0.000
1743562703.707,-28.320,-31.738,-32.715,-15.625,0.000
1743562703.711,-23.926,-30.762,-34.180,-20.020,0.000
1743562703.714,-19.043,-28.320,-27.832,-12.207,0.000
1743562703.718,-35.156,-31.738,-24.414,-8.301,0.000
1743562703.722,-31.250,-26.855,-19.531,-8.301,0.000
1743562703.726,-18.555,-27.832,-25.879,-13.672,0.000
1743562703.730,-17.090,-30.762,-33.691,-34.668,0.000
1743562703.734,-10.254,-38.574,-29.297,-41.504,0.000
1743562703.738,-12.207,-45.410,-27.832,-31.738,0.000
1743562703.742,-24.414,-41.016,-30.762,-29.785,0.000
1743562703.746,-17.090,-37.598,-21.973,-30.762,0.000
1743562703.750,-15.625,-32.227,-18.555,-30.273,0.000
1743562703.754,-23.926,-28.809,-25.879,-37.598,0.000
1743562703.757,-18.066,-30.273,-29.785,-45.410,0.000
1743562703.761,-27.344,-26.855,-27.832,-33.203,0.000
1743562703.765,-38.574,-31.250,-25.391,-30.762,0.000
1743562703.769,-38.574,-34.180,-29.297,-29.297,0.000
1743562703.773,-47.363,-30.762,-31.250,-26.855,0.000
1743562703.777,-47.852,-43.457,-35.645,-43.945,0.000
1743562703.781,-38.574,-43.945,-33.691,-48.340,0.000
1743562703.785,-38.086,-31.738,-28.320,-40.039,0.000
1743562703.789,-32.715,-28.809,-27.344,-39.551,0.000
1743562703.793,-30.762,-25.391,-26.367,-39.062,0.000
1743562703.797,-32.227,-19.531,-23.438,-33.691,0.000
1743562703.800,-20.508,-21.973,-22.949,-38.574,0.000
1743562703.804,-33.691,-31.250,-29.297,-43.457,0.000
1743562703.808,-39.551,-31.250,-33.691,-23.926,0.000
1743562703.812,-43.457,-28.320,-40.527,-29.297,0.000
1743562703.816,-49.316,-34.180,-42.480,-46.875,0.000
1743562703.820,0.000,-35.156,-38.086,-41.992,0.000
1743562703.824,0.000,-31.250,-32.715,-41.504,0.000
1743562703.828,0.000,-26.855,-31.738,-41.504,0.000
1743562703.832,0.000,-22.949,-32.715,-23.926,0.000
1743562703.836,0.000,-26.855,-29.297,-17.090,0.000
1743562703.840,0.000,-27.344,-22.949,-20.508,0.000
1743562703.843,0.000,-29.785,-31.250,-22.949,0.000
1743562703.847,0.000,-32.227,-25.391,-28.320,0.000
1743562703.851,0.000,-24.902,-19.531,-41.992,0.000
1743562703.855,0.000,-24.414,-35.156,-47.852,0.000
1743562703.859,0.000,-27.344,-43.457,-46.387,0.000
1743562703.863,0.000,-24.414,-40.527,-45.410,0.000
1743562703.867,-28.809,-28.809,-34.668,-26.855,0.000
1743562703.871,-26.855,-29.297,-30.273,-17.578,0.000
1743562703.875,-30.273,-21.973,-31.738,-27.832,0.000
1743562703.879,-34.180,-24.902,-29.297,-36.133,0.000
1743562703.883,-34.180,-27.344,-30.273,-43.457,0.000
1743562703.886,-19.531,-27.344,-29.297,-40.527,0.000
1743562703.890,-12.695,-31.250,-28.320,-39.062,0.000
1743562703.894,-36.621,-26.367,-24.414,-40.527,0.000
1743562703.898,-41.504,-27.832,-10.742,-38.086,0.000
1743562703.902,-38.086,-35.645,-14.160,-46.387,0.000
1743562703.906,-42.969,-42.480,-22.949,-48.340,0.000
1743562703.910,-45.410,-40.039,-28.320,-37.598,0.000
1743562703.914,-28.809,-36.621,-31.738,-36.133,0.000
1743562703.918,-24.902,-36.621,-23.926,-34.668,0.000
1743562703.922,-32.715,-28.809,-24.414,-29.297,0.000
1743562703.926,-34.668,-30.273,-25.391,-24.414,0.000
1743562703.929,-39.062,-33.691,-27.344,-30.273,0.000
1743562703.933,-35.645,-31.250,-37.109,-39.062,0.000
1743562703.937,-27.832,-35.645,-30.273,-23.438,0.000
1743562703.941,-17.090,-33.691,-19.531,-15.625,0.000
1743562703.945,-22.461,-28.809,-26.367,-23.438,0.000
1743562703.949,-24.414,-34.668,-33.691,-39.551,0.000
1743562703.953,-20.020,-37.109,-24.902,-37.598,0.000
1743562703.957,-22.461,-30.762,-21.484,-15.137,0.000
1743562703.961,-34.180,-31.738,-29.297,-20.508,0.000
1743562703.965,-18.555,-25.391,-22.949,-34.668,0.000
1743562703.969,-4.883,-24.902,-11.230,-19.043,0.000
1743562703.972,-30.273,-36.133,-24.414,-22.949,0.000
1743562703.976,-41.504,-34.668,-31.738,-33.203,0.000
1743562703.980,-33.203,-30.762,-23.438,-20.996,0.000
1743562703.984,-41.016,-33.691,-30.762,-27.344,0.000
1743562703.988,-37.598,-28.320,-42.480,-40.039,0.000
1743562703.992,-18.066,-19.043,-20.996,-31.250,0.000
1743562703.996,-22.949,-16.602,-6.836,-20.020,0.000
1743562704.000,-49.316,-22.949,-24.414,-34.180,0.000
1743562704.003,-46.387,-27.832,-26.367,-36.621,0.000
1743562704.008,-44.922,-28.809,-14.648,-35.645,0.000
1743562704.011,-49.805,-32.227,-13.184,-35.156,0.000
1743562704.015,-44.922,-35.645,-16.113,-28.809,0.000
1743562704.019,-50.781,-33.203,-20.996,-26.367,0.000
1743562704.023,-49.805,-33.203,-23.438,-13.184,0.000
1743562704.027,-30.273,-26.855,-20.508,6.836,0.000
1743562704.031,-19.043,-25.879,-23.438,-3.906,0.000
1743562704.035,-21.973,-31.250,-26.855,-33.203,0.000
1743562704.039,-24.902,-29.785,-32.227,-32.227,0.000
1743562704.043,-22.949,-32.227,-33.203,-29.785,0.000
1743562704.046,-24.414,-36.621,-29.785,-32.715,0.000
1743562704.050,-30.273,-41.992,-31.738,-31.250,0.000
1743562704.054,-42.480,-43.945,-27.344,-37.109,0.000
1743562704.058,-41.992,-39.551,-29.785,-44.434,0.000
1743562704.062,-39.062,-34.180,-29.297,-41.016,0.000
1743562704.066,-38.086,-31.738,-28.320,-40.039,0.000
1743562704.070,-41.016,-32.227,-36.621,-39.062,0.000
1743562704.074,-36.621,-27.344,-39.551,-28.320,0.000
1743562704.078,-27.344,-21.484,-44.434,-29.297,0.000
1743562704.082,-30.762,-35.156,-43.945,-31.250,0.000
1743562704.086,-32.715,-41.992,-38.574,-40.527,0.000
1743562704.089,-43.457,-46.875,-30.273,-39.062,0.000
1743562704.093,-59.082,-51.758,-29.785,-25.879,0.000
1743562704.097,-58.594,-41.504,-43.457,-31.250,0.000
1743562704.101,-42.969,-30.273,-36.621,-38.086,0.000
1743562704.105,-43.457,-31.738,-31.250,-34.180,0.000
1743562704.109,-41.016,-26.367,-31.738,-29.297,0.000
1743562704.113,-41.504,-31.250,-31.738,-38.574,0.000
1743562704.117,-43.945,-45.898,-46.875,-41.992,0.000
1743562704.121,-34.668,-43.945,-47.852,-37.109,0.000
1743562704.125,-34.668,-34.180,-41.016,-43.457,0.000
1743562704.129,-38.086,-35.645,-33.691,-43.457,0.000
1743562704.132,-42.969,-38.086,-32.715,-33.691,0.000
1743562704.136,-39.062,-32.227,-29.785,-29.297,0.000
1743562704.140,-36.133,-35.645,-27.832,-33.691,0.000
1743562704.144,-37.598,-35.156,-28.320,-32.227,0.000
1743562704.148,-30.762,-29.785,-33.691,-27.832,0.000
1743562704.152,-38.574,-40.527,-46.387,-40.527,0.000
1743562704.156,-45.410,-41.504,-44.922,-51.270,0.000
1743562704.160,-32.715,-35.645,-35.645,-42.969,0.000
1743562704.164,-33.203,-34.180,-27.832,-42.969,0.000
1743562704.168,-40.039,-36.621,-30.762,-41.992,0.000
1743562704.172,-40.527,-34.668,-32.715,-37.109,0.000
1743562704.175,-25.391,-26.367,-25.879,-25.391,0.000
1743562704.179,-28.809,-31.250,-24.414,-13.672,0.000
1743562704.183,-22.461,-32.715,-27.344,-17.090,0.000
1743562704.187,-8.789,-23.438,-19.043,-20.020,0.000
1743562704.191,-23.926,-29.785,-13.184,-13.672,0.000
1743562704.195,0.000,-43.457,-23.926,-15.137,0.000
1743562704.199,0.000,-36.621,-29.297,-9.277,0.000
1743562704.203,0.000,-24.902,-19.531,-10.254,0.000
1743562704.207,0.000,-20.996,-12.695,-26.367,0.000
1743562704.211,0.000,-15.625,-13.672,-31.738,0.000
1743562704.215,0.000,-20.020,-19.531,-35.645,0.000
1743562704.218,0.000,-26.367,-23.438,-29.785,0.000
1743562704.222,0.000,-30.762,-28.809,-17.578,0.000
1743562704.226,0.000,-32.227,-30.273,-30.273,0.000
1743562704.230,0.000,-35.156,-39.551,-43.457,0.000
1743562704.234,0.000,-32.227,-35.156,-22.461,0.000
1743562704.238,0.000,-30.273,-22.949,-17.090,0.000
1743562704.242,-40.039,-39.062,-26.855,-37.109,0.000
1743562704.246,-31.738,-35.645,-14.648,-38.086,0.000
1743562704.250,-20.996,-28.809,-12.207,-21.484,0.000
1743562704.254,-27.832,-33.203,-30.762,-32.227,0.000
1743562704.257,-12.207,-29.785,-27.832,-26.367,0.000
1743562704.261,-26.855,-38.086,-28.320,-20.020,0.000
1743562704.265,-43.945,-46.875,-29.785,-27.832,0.000
1743562704.269,-22.949,-37.109,-28.809,-28.809,0.000
1743562704.273,-12.207,-28.809,-26.855,-7.324,0.000
1743562704.277,-8.301,-26.855,-20.020,11.719,0.000
1743562704.281,-12.207,-26.855,-19.043,6.348,0.000
1743562704.285,-7.324,-32.227,-20.996,-3.906,0.000
1743562704.289,5.371,-36.621,-23.438,-3.906,0.000
1743562704.293,-6.348,-35.156,-28.320,-7.812,0.000
1743562704.297,-21.973,-36.133,-31.738,-17.578,0.000
1743562704.300,-35.645,-32.715,-26.855,-22.461,0.000
1743562704.304,-41.016,-31.738,-28.320,-23.926,0.000
1743562704.308,-28.320,-27.344,-22.949,-17.090,0.000
1743562704.312,-22.461,-16.602,-14.648,-10.742,0.000
1743562704.316,-27.832,-27.832,-25.391,-27.832,0.000
1743562704.320,-19.531,-40.039,-22.949,-20.996,0.000
1743562704.324,-2.441,-29.297,-7.812,-10.742,0.000
1743562704.328,-8.789,-20.020,-13.672,-22.949,0.000
1743562704.332,-26.855,-25.879,-36.621,-21.484,0.000
1743562704.336,-35.645,-28.320,-33.691,-12.207,0.000
1743562704.340,-27.832,-23.438,-22.949,-11.719,0.000
1743562704.343,-18.066,-23.926,-24.414,-13.672,0.000
1743562704.347,-20.508,-22.949,-22.949,-9.277,0.000
1743562704.351,-20.020,-20.996,-19.043,-7.324,0.000
1743562704.355,-10.742,-24.414,-20.020,-28.809,0.000
1743562704.359,-24.902,-38.574,-23.926,-27.344,0.000
1743562704.363,-22.949,-35.156,-21.484,-6.348,0.000
1743562704.367,-21.484,-24.902,-19.531,-9.277,0.000
1743562704.371,-35.645,-25.391,-28.320,-35.645,0.000
1743562704.375,-35.645,-27.344,-35.156,-37.109,0.000
1743562704.378,-27.832,-28.809,-23.438,-18.555,0.000
1743562704.383,-17.578,-20.996,-20.508,-12.207,0.000
1743562704.386,-20.020,-22.949,-40.039,-26.855,0.000
1743562704.390,-21.484,-27.832,-44.922,-35.156,0.000
1743562704.394,-21.973,-36.133,-32.715,-41.504,0.000
1743562704.398,-19.531,-33.691,-26.855,-35.645,0.000
1743562704.402,-23.926,-25.391,-23.438,-33.203,0.000
1743562704.406,-33.203,-31.250,-19.531,-45.410,0.000
1743562704.410,-39.062,-43.457,-24.902,-42.969,0.000
1743562704.414,-43.945,-36.621,-22.949,-29.785,0.000
1743562704.418,-32.227,-27.832,-18.066,-26.855,0.000
1743562704.421,-27.832,-24.902,-24.902,-33.203,0.000
1743562704.425,-35.645,-24.414,-28.320,-32.227,0.000
1743562704.429,-29.297,-25.879,-19.531,-19.531,0.000
1743562704.433,-18.066,-25.391,-10.254,-14.160,0.000
1743562704.437,-20.996,-34.180,-20.020,-21.973,0.000
1743562704.441,-26.367,-33.691,-33.691,-30.273,0.000
1743562704.445,-26.367,-31.250,-31.738,-40.039,0.000
1743562704.449,-24.414,-27.344,-20.508,-29.297,0.000
1743562704.453,-31.738,-28.320,-20.508,-10.254,0.000
1743562704.457,-33.203,-36.621,-27.344,-23.438,0.000
1743562704.460,-17.090,-26.367,-25.879,-36.621,0.000
1743562704.464,-14.160,-21.973,-23.926,-17.578,0.000
1743562704.468,-10.254,-26.855,-17.578,-13.184,0.000
1743562704.472,-0.488,-22.461,-8.301,-17.578,0.000
1743562704.476,-9.277,-19.043,-3.906,-15.137,0.000
1743562704.480,-21.973,-27.344,-22.461,-28.320,0.000
1743562704.484,-32.715,-25.879,-42.969,-35.156,0.000
1743562704.488,-37.109,-12.207,-39.062,-27.344,0.000
1743562704.492,-25.879,-14.648,-30.273,-18.066,0.000
1743562704.496,-22.949,-24.414,-22.461,-24.902,0.000
1743562704.500,-26.855,-30.273,-20.996,-22.949,0.000
1743562704.503,-19.531,-27.832,-26.367,-27.832,0.000
1743562704.507,-25.391,-28.809,-27.832,-57.129,0.000
1743562704.511,-37.598,-29.297,-23.926,-59.082,0.000
1743562704.515,-37.109,-27.832,-28.320,-48.828,0.000
1743562704.519,-42.969,-30.273,-41.504,-56.641,0.000
1743562704.523,-55.176,-27.344,-38.574,-48.828,0.000
1743562704.527,-60.059,-27.344,-29.785,-35.156,0.000
1743562704.531,-59.082,-35.156,-35.645,-41.992,0.000
1743562704.535,-42.480,-37.109,-37.109,-49.316,0.000
1743562704.539,-32.715,-36.621,-43.457,-50.781,0.000
1743562704.543,-43.945,-36.133,-42.969,-58.594,0.000
1743562704.546,-55.176,-30.762,-28.320,-56.152,0.000
1743562704.550,-45.898,-25.391,-29.297,-40.039,0.000
1743562704.554,-41.504,-26.367,-28.809,-35.156,0.000
1743562704.558,-49.805,-36.133,-26.367,-40.527,0.000
1743562704.562,-43.457,-19.531,-27.344,-36.621,0.000
1743562704.566,-29.297,-10.254,-26.367,-36.621,0.000
1743562704.570,-29.297,-17.578,-33.203,-42.480,0.000
1743562704.574,-30.273,-21.973,-35.156,-37.598,0.000
1743562704.578,-26.367,-30.273,-33.203,-36.133,0.000
1743562704.582,-31.250,-28.320,-39.551,-27.344,0.000
1743562704.586,-29.297,-25.391,-42.480,-29.785,0.000
1743562704.589,-23.438,-26.855,-32.715,-29.297,0.000
1743562704.593,-31.250,-29.297,-29.785,-27.832,0.000
1743562704.597,-25.879,-26.855,-29.297,-27.832,0.000
1743562704.601,-15.137,-18.555,-24.902,-35.645,0.000
1743562704.605,-23.926,-22.949,-28.809,-35.645,0.000
1743562704.609,-24.902,-25.879,-26.855,-18.555,0.000
1743562704.613,-26.855,-31.738,-24.414,-21.484,0.000
1743562704.617,-25.879,-36.621,-28.809,-34.180,0.000
1743562704.621,-25.879,-34.668,-29.785,-25.391,0.000
1743562704.625,-32.715,-30.762,-30.273,-24.902,0.000
1743562704.629,-26.855,-29.785,-37.598,-30.762,0.000
1743562704.632,-22.461,-21.973,-31.250,-24.902,0.000
1743562704.636,-19.043,-13.672,-24.414,-23.438,0.000
1743562704.640,-24.414,-14.160,-28.320,-17.578,0.000
1743562704.644,-36.133,-32.715,-30.762,-17.090,0.000
1743562704.648,-36.133,-35.645,-23.926,-25.391,0.000
1743562704.652,-26.367,-21.484,-13.672,-28.320,0.000
1743562704.656,-28.320,-19.043,-16.602,-26.367,0.000
1743562704.660,-33.203,-26.367,-25.391,-31.738,0.000
1743562704.664,-32.715,-39.551,-32.227,-48.828,0.000
1743562704.668,-35.156,-32.715,-39.551,-50.293,0.000
1743562704.672,-34.180,-21.973,-36.621,-30.273,0.000
1743562704.675,-34.180,-23.926,-27.344,-22.461,0.000
1743562704.679,-43.457,-23.438,-32.227,-34.668,0.000
1743562704.683,-48.828,-26.855,-42.969,-45.410,0.000
1743562704.687,-45.410,-30.273,-43.945,-39.551,0.000
1743562704.691,-41.016,-39.551,-41.504,-21.484,0.000
1743562704.695,-41.992,-46.387,-33.203,-25.879,0.000
1743562704.699,-38.086,-39.551,-24.902,-31.250,0.000
1743562704.703,-36.621,-31.250,-24.414,-27.832,0.000
1743562704.706,-37.109,-34.180,-29.297,-36.133,0.000
1743562704.711,-30.273,-28.809,-26.367,-41.504,0.000
1743562704.715,-30.762,-28.320,-20.996,-37.598,0.000
1743562704.718,-36.621,-34.180,-29.297,-35.156,0.000
1743562704.722,-28.809,-31.738,-45.898,-32.227,0.000
1743562704.726,-25.879,-37.109,-44.434,-29.297,0.000
1743562704.730,-37.598,-39.062,-41.992,-23.438,0.000
1743562704.734,-34.180,-32.715,-48.828,-32.227,0.000
1743562704.738,-21.484,-33.691,-44.434,-29.297,0.000
1743562704.742,-21.484,-33.203,-29.297,-21.973,0.000
1743562704.746,-32.227,-27.832,-17.578,-28.809,0.000
1743562704.749,-25.391,-20.508,-19.043,-18.555,0.000
1743562704.753,-22.949,-20.996,-22.949,-11.230,0.000
1743562704.758,-30.762,-28.320,-30.762,-39.062,0.000
1743562704.761,-27.832,-35.645,-30.762,-50.781,0.000
1743562704.765,-23.438,-38.574,-25.879,-38.574,0.000
1743562704.769,-28.320,-34.180,-30.762,-32.227,0.000
1743562704.773,-30.273,-26.367,-34.668,-30.762,0.000
1743562704.777,-30.762,-27.832,-40.527,-38.574,0.000
1743562704.781,-33.691,-31.250,-43.945,-48.340,0.000
1743562704.785,-31.738,-28.320,-36.621,-43.457,0.000
1743562704.789,-36.621,-25.879,-29.297,-35.156,0.000
1743562704.792,-37.598,-26.855,-24.414,-36.621,0.000
1743562704.796,-42.480,-32.715,-32.227,-39.551,0.000
1743562704.800,-50.781,-30.273,-36.621,-37.109,0.000
1743562704.804,-40.527,-27.832,-26.855,-39.062,0.000
1743562704.808,-17.578,-30.273,-17.090,-32.227,0.000
1743562704.812,-14.648,-29.297,-27.832,-22.461,0.000
1743562704.816,-27.344,-31.738,-37.109,-27.832,0.000
1743562704.820,-27.832,-32.227,-24.902,-20.996,0.000
1743562704.824,-34.668,-34.668,-30.273,-23.438,0.000
1743562704.828,-35.645,-31.250,-42.480,-39.062,0.000
1743562704.832,-38.574,-31.738,-39.062,-29.785,0.000
1743562704.835,-34.180,-40.527,-30.762,-26.855,0.000
1743562704.839,-25.879,-43.457,-32.227,-35.156,0.000
1743562704.843,-25.391,-38.086,-32.227,-32.227,0.000
1743562704.847,-32.715,-38.086,-28.320,-29.785,0.000
1743562704.851,-41.016,-50.293,-39.551,-35.645,0.000
1743562704.855,-29.785,-44.922,-33.691,-20.996,0.000
1743562704.859,-27.832,-40.527,-27.344,-25.879,0.000
1743562704.863,-27.832,-34.668,-32.227,-29.297,0.000
1743562704.867,-36.133,-30.762,-38.574,-29.785,0.000
1743562704.871,-35.645,-34.180,-37.598,-41.016,0.000
1743562704.875,-38.574,-38.086,-31.738,-46.387,0.000
1743562704.878,-39.551,-36.133,-37.109,-33.691,0.000
1743562704.882,-35.156,-27.832,-32.715,-33.203,0.000
1743562704.886,-40.527,-29.297,-31.738,-63.477,0.000
1743562704.890,-42.480,-33.691,-38.574,-57.129,0.000
1743562704.894,-21.484,-32.227,-36.133,-39.062,0.000
1743562704.898,-2.930,-28.809,-34.668,-36.621,0.000
1743562704.902,-30.273,-27.832,-28.320,-43.457,0.000
1743562704.906,-46.875,-30.273,-33.691,-47.852,0.000
1743562704.910,-38.574,-38.574,-44.434,-47.852,0.000
1743562704.914,-39.551,-41.016,-34.668,-42.969,0.000
1743562704.918,-46.387,-29.785,-23.438,-26.855,0.000
1743562704.921,-35.645,-30.762,-32.227,-21.973,0.000
1743562704.925,-26.855,-41.504,-36.133,-38.086,0.000
1743562704.929,-26.367,-41.016,-31.250,-37.598,0.000
1743562704.933,-23.438,-36.621,-38.574,-40.527,0.000
1743562704.937,-28.320,-33.203,-31.250,-48.828,0.000
1743562704.941,-36.133,-25.879,-26.367,-42.480,0.000
1743562704.945,-29.297,-21.973,0.000,-36.133,0.000
1743562704.949,-24.902,-26.855,0.000,-32.227,0.000
1743562704.953,-28.320,-22.461,0.000,-24.414,0.000
1743562704.957,-31.738,-25.391,0.000,-26.367,0.000
1743562704.961,-32.227,-30.762,0.000,-30.762,0.000
1743562704.964,-24.414,-33.691,0.000,-31.738,0.000
1743562704.968,-25.391,-38.574,0.000,-39.062,0.000
1743562704.972,-29.297,-42.480,0.000,-46.875,0.000
1743562704.976,-44.922,-44.434,0.000,-50.781,0.000
1743562704.980,-47.363,-29.297,0.000,-34.180,0.000
1743562704.984,-41.992,-29.785,0.000,-29.297,0.000
1743562704.988,-43.945,-39.551,0.000,-31.250,0.000
1743562704.992,-38.086,-36.133,-32.227,-32.227,0.000
1743562704.996,-24.902,-32.715,-29.297,-34.180,0.000
1743562705.000,-30.273,-43.457,-29.297,-38.574,0.000
1743562705.004,-35.156,-42.480,-33.203,-22.461,0.000
1743562705.007,-23.926,-32.715,-27.344,-18.066,0.000
1743562705.011,-29.785,-34.668,-27.832,-27.832,0.000
1743562705.015,-31.738,-29.785,-39.551,-20.508,0.000
1743562705.019,-33.691,-33.203,-42.969,-19.531,0.000
1743562705.023,-42.480,-38.086,-24.902,-20.508,0.000
1743562705.027,-34.180,-28.809,-9.766,-27.832,0.000
1743562705.031,-32.227,-35.156,-20.508,-30.762,0.000
1743562705.035,-28.320,-37.598,-21.484,-20.020,0.000
1743562705.039,-27.832,-27.344,-14.160,-20.020,0.000
1743562705.043,-33.691,-28.809,-22.461,-18.066,0.000
1743562705.047,-33.203,-33.691,-32.715,-13.184,0.000
1743562705.050,-37.598,-30.273,-32.227,-33.203,0.000
1743562705.054,-34.180,-27.344,-25.879,-41.992,0.000
1743562705.058,-27.832,-31.250,-27.344,-33.691,0.000
1743562705.062,-27.344,-26.855,-35.645,-40.527,0.000
1743562705.066,-30.273,-25.391,-37.109,-32.715,0.000
1743562705.070,-32.715,-31.738,-38.574,-18.555,0.000
1743562705.074,-29.297,-31.250,-21.973,-15.625,0.000
1743562705.078,-32.227,-29.297,-14.160,-9.766,0.000
1743562705.081,-29.785,-30.273,-22.949,-3.418,0.000
1743562705.086,-23.438,-24.902,-28.320,-8.789,0.000
1743562705.090,-28.320,-21.484,-26.855,-13.184,0.000
1743562705.093,-25.391,-30.273,-29.785,-22.949,0.000
1743562705.097,-34.668,-35.156,-36.621,-26.855,0.000
1743562705.101,-40.039,-32.715,-29.785,-15.137,0.000
1743562705.105,-25.391,-21.973,-20.996,-4.883,0.000
1743562705.109,-30.762,-22.461,-30.762,-18.555,0.000
1743562705.113,-33.203,-31.250,-37.598,-25.879,0.000
1743562705.117,-25.391,-25.391,-40.039,-14.648,0.000
1743562705.121,-20.996,-17.578,-32.715,-14.160,0.000
1743562705.124,-14.648,-18.066,-17.578,-17.578,0.000
1743562705.128,-15.625,-19.531,-14.160,-16.602,0.000
1743562705.133,-23.926,-24.414,-22.461,-23.438,0.000
1743562705.136,-20.020,-25.391,-20.996,-15.625,0.000
1743562705.140,-17.090,-25.879,-16.602,-15.625,0.000
1743562705.144,-21.484,-24.414,-19.043,-28.809,0.000
1743562705.148,-29.297,-26.855,-25.391,-31.738,0.000
1743562705.152,-18.555,-22.949,-29.297,-29.785,0.000
1743562705.156,-12.207,-18.066,-31.250,-33.203,0.000
1743562705.160,-25.879,-17.578,-29.785,-27.344,0.000
1743562705.164,-32.715,-24.414,-32.227,-21.973,0.000
1743562705.167,-29.785,-36.133,-42.480,-42.969,0.000
1743562705.171,-26.367,-29.297,-28.809,-43.945,0.000
1743562705.175,-24.902,-27.344,-10.742,-26.367,0.000
1743562705.179,-35.156,-44.922,-21.484,-24.414,0.000
1743562705.183,-32.715,-35.645,-22.461,-29.297,0.000
1743562705.187,-30.762,-20.508,-16.602,-30.762,0.000
1743562705.191,-33.203,-20.020,-25.391,-31.738,0.000
1743562705.195,-33.691,-19.531,-40.039,-34.180,0.000
1743562705.199,-40.527,-24.414,-37.598,-25.391,0.000
1743562705.203,-34.668,-23.926,-31.250,-25.391,0.000
1743562705.207,-27.832,-24.902,-31.738,-38.086,0.000
1743562705.210,-29.297,-31.738,-37.109,-37.109,0.000
1743562705.214,-28.809,-34.668,-36.133,-24.414,0.000
1743562705.218,-29.785,-30.762,-26.855,-24.414,0.000
1743562705.222,-27.832,-27.832,-16.113,-29.785,0.000
1743562705.226,-28.320,-30.273,-13.672,-26.367,0.000
1743562705.230,-31.250,-34.180,-26.855,-24.902,0.000
1743562705.234,-19.531,-31.738,-30.273,-38.086,0.000
1743562705.238,-20.508,-29.785,-27.344,-40.039,0.000
1743562705.242,-33.203,-30.273,-28.320,-26.367,0.000
1743562705.246,-27.344,-20.508,-23.438,-28.320,0.000
1743562705.250,-22.461,-25.879,-27.832,-27.344,0.000
1743562705.253,-19.531,-39.551,-41.504,-10.742,0.000
1743562705.257,-18.066,-37.598,-41.992,-18.066,0.000
1743562705.261,-9.277,-25.879,-21.973,-19.043,0.000
1743562705.265,-3.418,-27.344,-7.812,0.977,0.000
1743562705.269,-17.090,-32.715,-15.625,-8.789,0.000
1743562705.273,-28.809,-32.715,-22.949,-28.320,0.000
1743562705.277,-25.879,-24.414,-21.484,-8.789,0.000
1743562705.281,-20.508,-20.508,-19.531,-8.301,0.000
1743562705.285,-26.367,-23.438,-22.949,-20.020,0.000
1743562705.289,-24.414,-22.949,-22.461,-15.625,0.000
1743562705.293,-19.531,-28.320,-24.414,-23.438,0.000
1743562705.296,-26.367,-31.250,-25.879,-30.273,0.000
1743562705.300,-26.367,-31.250,-37.598,-26.855,0.000
1743562705.304,-27.832,-35.156,-40.039,-22.949,0.000
1743562705.308,-36.133,-39.551,-26.367,-31.738,0.000
1743562705.312,-23.438,-32.227,-20.996,-34.668,0.000
1743562705.316,-10.254,-19.043,-17.090,-12.207,0.000
1743562705.320,0.000,-18.555,-21.973,-14.160,0.000
1743562705.324,0.000,-24.902,-20.996,-19.043,0.000
1743562705.328,0.000,-24.902,-11.719,-12.695,0.000
1743562705.332,0.000,-26.367,-15.625,-21.973,0.000
1743562705.335,0.000,-29.297,-18.066,-20.996,0.000
1743562705.339,0.000,-31.250,-24.414,-10.742,0.000
1743562705.343,0.000,-34.668,-30.762,-11.230,0.000
1743562705.347,0.000,-36.621,-35.156,-25.391,0.000
1743562705.351,0.000,-32.715,-37.598,-29.297,0.000
1743562705.355,0.000,-25.391,-26.367,-15.137,0.000
1743562705.359,0.000,-18.066,-21.973,-11.719,0.000
1743562705.363,0.000,-19.531,-28.320,-20.020,0.000
1743562705.367,-24.414,-24.414,-29.785,-20.020,0.000
1743562705.371,-31.250,-17.578,-22.461,-26.855,0.000
1743562705.375,-24.414,-22.949,-22.461,-29.785,0.000
1743562705.378,-25.391,-34.180,-29.297,-14.160,0.000
1743562705.382,-29.785,-31.250,-30.273,-15.625,0.000
1743562705.386,-24.902,-26.855,-31.738,-27.832,0.000
1743562705.390,-32.227,-27.344,-33.691,-25.879,0.000
1743562705.394,-29.785,-32.227,-36.621,-28.809,0.000
1743562705.398,-21.973,-29.785,-39.551,-18.066,0.000
1743562705.402,-15.625,-24.414,-32.715,-22.949,0.000
1743562705.406,-20.020,-29.785,-30.762,-34.180,0.000
1743562705.410,-21.973,-38.086,-34.668,-30.762,0.000
1743562705.414,-12.695,-31.738,-36.621,-11.230,0.000
1743562705.418,-16.113,-27.832,-36.621,-15.625,0.000
1743562705.421,-24.902,-39.062,-32.715,-41.504,0.000
1743562705.425,-20.996,-40.039,-32.227,-44.922,0.000
1743562705.429,-9.277,-32.715,-35.645,-34.668,0.000
1743562705.433,-14.648,-27.832,-31.250,-26.367,0.000
1743562705.437,-29.785,-29.297,-25.391,-27.832,0.000
1743562705.441,-24.902,-30.273,-34.180,-25.879,0.000
1743562705.445,-28.809,-35.645,-37.109,-34.668,0.000
1743562705.449,-37.598,-42.480,-29.297,-41.992,0.000
1743562705.453,-31.738,-38.086,-31.250,-23.438,0.000
1743562705.456,-29.297,-37.598,-33.691,-26.367,0.000
1743562705.461,-27.344,-40.039,-33.691,-45.410,0.000
1743562705.464,-23.926,-39.062,-34.180,-41.016,0.000
1743562705.468,-24.902,-36.133,-33.203,-24.414,0.000
1743562705.472,-21.484,-31.738,-22.949,-22.461,0.000
1743562705.476,-23.926,-29.785,-19.531,-25.391,0.000
1743562705.480,-33.203,-30.762,-25.879,-26.367,0.000
1743562705.484,-28.320,-36.133,-28.320,-33.203,0.000
1743562705.488,-33.203,-38.086,-31.250,-42.969,0.000
1743562705.492,-46.875,-30.273,-29.297,-42.969,0.000
1743562705.496,-39.062,-30.762,-24.414,-43.945,0.000
1743562705.499,-22.949,-36.621,-29.785,-46.387,0.000
1743562705.503,-27.832,-37.109,-29.297,-36.621,0.000
1743562705.507,-36.133,-30.762,-28.809,-29.297,0.000
1743562705.511,-35.156,-26.367,-36.133,-29.785,0.000
1743562705.515,-36.133,-33.203,-41.504,-26.367,0.000
1743562705.519,-36.621,-39.062,-41.016,-23.438,0.000
1743562705.523,-27.344,-27.344,-31.250,-31.250,0.000
1743562705.527,-18.066,-14.160,-22.949,-25.879,0.000
1743562705.531,-26.367,-23.926,-22.461,-23.438,0.000
1743562705.535,-27.832,-39.062,-28.320,-27.832,0.000
1743562705.538,-25.391,-35.156,-29.297,-27.344,0.000
1743562705.542,-27.344,-34.180,-31.250,-26.367,0.000
1743562705.546,-32.227,-33.203,-26.855,-27.832,0.000
1743562705.550,-29.297,-28.320,-19.531,-25.391,0.000
1743562705.554,-17.578,-30.273,-26.367,-21.484,0.000
1743562705.558,-21.973,-26.855,-24.414,-25.391,0.000
1743562705.562,-38.086,-29.297,-39.062,-19.531,0.000
1743562705.566,-28.809,-29.297,-43.457,-11.230,0.000
1743562705.570,-22.949,-24.414,-32.715,-15.137,0.000
1743562705.574,-28.320,-32.227,-33.203,-31.250,0.000
1743562705.578,-26.367,-37.109,-39.062,-44.434,0.000
1743562705.581,-25.879,-30.273,-38.574,-29.785,0.000
1743562705.585,-37.598,-21.973,-31.738,-19.531,0.000
1743562705.589,-49.316,-30.762,-33.203,-35.645,0.000
1743562705.593,-40.527,-42.969,-31.250,-41.016,0.000
1743562705.597,-21.484,-34.180,-24.414,-22.949,0.000
1743562705.601,-24.902,-29.297,-28.809,-17.578,0.000
1743562705.605,-33.203,-40.527,-31.250,-29.297,0.000
1743562705.609,-28.320,-42.480,-33.691,-38.574,0.000
1743562705.613,-24.902,-27.832,-32.715,-21.484,0.000
1743562705.617,-27.832,-27.344,-30.273,-26.855,0.000
1743562705.621,-30.273,-31.738,-33.203,-39.551,0.000
1743562705.624,-21.484,-26.855,-27.832,-26.855,0.000
1743562705.628,-20.508,-31.250,-26.855,-14.648,0.000
1743562705.632,-17.578,-28.320,-22.461,-9.766,0.000
1743562705.636,-19.531,-20.020,-22.461,-16.113,0.000
1743562705.640,-33.691,-32.227,-38.086,-37.598,0.000
1743562705.644,-40.039,-44.922,-38.574,-49.316,0.000
1743562705.648,-44.434,-36.133,-26.367,-33.691,0.000
1743562705.652,-42.969,-25.879,-26.855,-31.250,0.000
1743562705.656,-47.852,-31.738,-40.527,-42.969,0.000
1743562705.660,-45.898,-35.156,-35.645,-37.598,0.000
1743562705.664,-26.855,-35.645,-32.227,-25.879,0.000
1743562705.667,-30.762,-32.715,-30.762,-34.180,0.000
1743562705.671,-34.668,-26.855,-28.809,-44.434,0.000
1743562705.675,-36.621,-36.133,-37.598,-55.664,0.000
1743562705.679,-46.875,-43.945,-39.551,-58.105,0.000
1743562705.683,-41.504,-41.504,-37.598,-44.434,0.000
1743562705.687,-34.180,-34.180,-37.109,-35.156,0.000
1743562705.691,-33.203,-21.484,-28.320,-26.367,0.000
1743562705.695,-42.969,-27.832,-29.785,-36.621,0.000
1743562705.699,-52.246,-41.992,-29.297,-59.570,0.000
1743562705.703,-40.527,-35.645,-30.762,-43.945,0.000
1743562705.707,-34.180,-26.855,-40.527,-34.668,0.000
1743562705.710,-36.621,-25.879,-30.273,-36.621,0.000
1743562705.714,-39.062,-26.367,-22.949,-30.762,0.000
1743562705.718,-42.480,-31.250,-33.691,-48.828,0.000
1743562705.722,-34.180,-28.320,-35.156,-37.598,0.000
1743562705.726,-32.227,-22.949,-24.902,-21.484,0.000
1743562705.730,-32.227,-26.367,-19.531,-33.691,0.000
1743562705.734,-34.668,-33.691,-18.066,-21.484,0.000
1743562705.738,-19.531,-31.250,-13.184,-16.602,0.000
1743562705.742,-16.113,-23.926,-16.113,-20.996,0.000
1743562705.746,-34.180,-21.973,-18.555,-24.902,0.000
1743562705.750,-35.645,-29.785,-28.809,-13.184,0.000
1743562705.753,-29.297,-32.715,-43.945,-23.438,0.000
1743562705.757,-29.297,-33.691,-40.039,-47.852,0.000
1743562705.761,-36.621,-26.855,-21.484,-39.062,0.000
1743562705.765,-52.246,-30.762,-25.391,-40.039,0.000
1743562705.769,-43.457,-35.156,-32.715,-24.414,0.000
1743562705.773,-21.484,-21.484,-23.438,-10.742,0.000
1743562705.777,-24.902,-18.066,-18.066,-15.625,0.000
1743562705.781,-33.691,-25.391,-25.391,-19.043,0.000
1743562705.785,-30.273,-33.203,-34.180,-33.203,0.000
1743562705.789,-33.691,-30.762,-37.109,-45.410,0.000
1743562705.793,-38.086,-14.160,-23.438,-28.320,0.000
1743562705.796,-36.133,-15.137,-32.227,-31.250,0.000
1743562705.800,-31.738,-26.367,-45.410,-38.574,0.000
1743562705.804,-33.691,-29.297,-41.992,-38.086,0.000
1743562705.808,-41.504,-26.367,-37.598,-36.621,0.000
1743562705.812,-42.969,-35.156,-41.016,-31.250,0.000
1743562705.816,-49.316,-46.875,-42.480,-27.344,0.000
1743562705.820,-52.734,-38.574,-36.621,-36.133,0.000
1743562705.824,-27.344,-26.367,-36.133,-45.410,0.000
1743562705.828,-18.066,-23.926,-28.320,-34.668,0.000
1743562705.831,-31.738,-32.715,-30.273,-20.996,0.000
1743562705.836,-25.879,-35.156,-26.855,-32.227,0.000
1743562705.839,-16.602,-31.250,-30.762,-35.156,0.000
1743562705.843,-18.555,-28.320,-38.574,-30.273,0.000
1743562705.847,-29.785,-28.320,-34.668,-40.039,0.000
1743562705.851,-42.480,-34.668,-38.086,-39.062,0.000
1743562705.855,-28.320,-30.762,-34.180,-49.805,0.000
1743562705.859,-17.578,-29.785,-21.973,-38.574,0.000
1743562705.863,-35.156,-30.762,-16.113,-11.230,0.000
1743562705.867,-39.062,-31.738,-17.578,-20.996,0.000
1743562705.870,-23.926,-27.832,-19.043,-36.133,0.000
1743562705.874,-17.090,-27.832,-26.855,-37.109,0.000
1743562705.878,-30.762,-36.621,-31.738,-22.461,0.000
1743562705.882,-25.879,-36.621,-22.949,-11.719,0.000
1743562705.886,-21.973,-39.062,-34.180,-34.668,0.000
1743562705.890,-28.320,-42.969,-44.434,-42.969,0.000
1743562705.894,-22.461,-41.992,-39.062,-28.320,0.000
1743562705.898,-8.301,-41.016,-33.203,-17.578,0.000
1743562705.902,-27.832,-34.668,-28.320,-24.902,0.000
1743562705.906,-48.828,-26.367,-29.785,-15.625,0.000
1743562705.910,-43.457,-31.738,-40.527,-11.719,0.000
1743562705.913,-34.668,-31.250,-35.645,-27.832,0.000
1743562705.917,-30.762,-27.344,-31.250,-28.320,0.000
1743562705.921,-24.414,-28.809,-25.879,-29.785,0.000
1743562705.925,-33.691,-37.109,-25.391,-22.949,0.000
1743562705.929,-40.527,-35.156,-29.297,-17.578,0.000
1743562705.933,-43.457,-32.227,-29.297,-28.809,0.000
1743562705.937,-33.203,-28.320,-32.715,-29.785,0.000
1743562705.941,-32.227,-23.926,-41.504,-25.391,0.000
1743562705.945,-38.086,-30.273,-37.598,-24.902,0.000
1743562705.949,-36.133,-33.203,-25.879,-22.949,0.000
1743562705.953,-28.809,-26.367,-21.973,-21.484,0.000
1743562705.956,-24.414,-31.250,-24.414,-24.902,0.000
1743562705.960,-39.062,-41.992,-25.879,-24.414,0.000
1743562705.964,-46.387,-43.945,-30.762,-15.625,0.000
1743562705.968,-38.086,-35.645,-28.809,-16.602,0.000
1743562705.972,-27.832,-29.297,-29.297,-22.461,0.000
1743562705.976,-31.250,-29.297,-33.691,-21.484,0.000
1743562705.980,-35.156,-35.156,-35.645,-50.293,0.000
1743562705.984,-26.367,-36.621,-41.992,-52.734,0.000
1743562705.988,-23.438,-23.438,-33.203,-24.902,0.000
1743562705.992,-41.504,-17.090,-28.809,-35.156,0.000
1743562705.996,-45.410,-32.715,-30.273,-37.598,0.000
1743562705.999,-37.109,-37.598,-25.391,-29.297,0.000
1743562706.003,-44.922,-35.645,-25.391,-32.715,0.000
1743562706.007,-43.945,-36.621,-20.508,-53.223,0.000
1743562706.011,-38.086,-35.156,-13.672,-50.293,0.000
1743562706.015,-36.133,-32.715,-19.531,-27.344,0.000
1743562706.019,-25.391,-25.879,-16.113,-23.926,0.000
1743562706.023,-23.926,-16.602,-11.230,-19.043,0.000
1743562706.027,-23.438,-19.531,-28.809,-21.484,0.000
1743562706.031,-18.555,-26.855,-33.203,-19.043,0.000
1743562706.035,-31.250,-37.598,-38.086,-19.531,0.000
1743562706.039,-35.156,-41.016,-27.832,-40.527,0.000
1743562706.042,-38.086,-32.227,-19.531,-46.875,0.000
1743562706.046,-36.133,-20.020,-23.926,-27.832,0.000
1743562706.050,-16.602,-12.695,-16.602,-10.742,0.000
1743562706.054,-12.695,-11.230,-13.184,-18.555,0.000
1743562706.058,-25.391,-18.066,-20.508,-23.926,0.000
1743562706.062,-29.297,-33.203,-24.414,-19.531,0.000
1743562706.066,-29.785,-31.250,-20.996,-24.902,0.000
1743562706.070,-35.156,-27.832,-18.555,-39.062,0.000
1743562706.074,-46.875,-44.434,-25.391,-41.504,0.000
1743562706.078,-52.734,-47.852,-44.922,-38.086,0.000
1743562706.082,-41.992,-37.598,-32.227,-34.180,0.000
1743562706.085,-35.156,-32.715,-23.926,-33.203,0.000
1743562706.089,-30.273,-34.180,-37.598,-27.832,0.000
1743562706.093,-30.762,-33.691,-27.832,-30.273,0.000
1743562706.097,-42.480,-42.969,-21.973,-42.969,0.000
1743562706.101,-40.039,-44.434,-22.949,-46.387,0.000
1743562706.105,-36.133,-41.992,-24.414,-33.691,0.000
1743562706.109,-34.668,-44.922,-21.484,-34.668,0.000
1743562706.113,-40.039,-34.180,-27.344,-31.738,0.000
1743562706.117,0.000,-30.762,-37.598,-21.973,0.000
1743562706.121,0.000,-37.109,-37.109,-35.156,0.000
1743562706.125,0.000,-36.621,-32.715,-42.969,0.000
1743562706.128,0.000,-27.344,-32.715,-36.621,0.000
1743562706.132,0.000,-26.855,-33.203,-49.316,0.000
1743562706.136,0.000,-30.273,-31.250,-45.410,0.000
1743562706.140,0.000,-22.949,-30.273,-30.762,0.000
1743562706.144,0.000,-27.344,-30.273,-37.109,0.000
1743562706.148,0.000,-27.344,-20.996,-28.809,0.000
1743562706.152,0.000,-23.926,-24.414,-24.902,0.000
1743562706.156,0.000,-21.973,-31.738,-36.133,0.000
1743562706.159,0.000,-24.902,-38.086,-38.086,0.000
1743562706.164,-44.434,-26.855,-42.969,-53.223,0.000
1743562706.168,-44.922,-30.273,-38.574,-52.734,0.000
1743562706.171,-43.945,-40.039,-39.551,-26.855,0.000
1743562706.175,-20.020,-33.691,-34.180,-14.648,0.000
1743562706.179,-23.926,-34.180,-27.832,-25.391,0.000
1743562706.183,-40.039,-34.668,-29.785,-20.508,0.000
1743562706.187,-21.484,-29.297,-21.484,-19.531,0.000
1743562706.191,-22.461,-34.668,-17.090,-36.133,0.000
1743562706.195,-29.785,-29.297,-27.832,-32.227,0.000
1743562706.199,-28.809,-25.391,-28.809,-28.809,0.000
1743562706.202,-34.180,-28.320,-26.855,-30.762,0.000
1743562706.206,-44.922,-41.504,-41.992,-41.016,0.000
1743562706.211,0.000,-40.527,-41.504,0.000,0.000
1743562706.214,0.000,-34.180,-28.809,0.000,0.000
1743562706.218,0.000,-30.273,-25.879,0.000,0.000
1743562706.222,0.000,-29.297,-33.203,0.000,0.000
1743562706.226,0.000,-36.621,-36.621,0.000,0.000
1743562706.230,0.000,-31.738,-33.203,0.000,0.000
1743562706.234,0.000,-34.668,-39.062,0.000,0.000
1743562706.238,0.000,-39.551,-38.086,0.000,0.000
1743562706.242,0.000,-29.785,-25.879,0.000,0.000
1743562706.245,0.000,-25.391,-17.090,0.000,0.000
1743562706.249,0.000,-36.133,-23.926,0.000,0.000
1743562706.253,0.000,-37.598,-30.762,0.000,0.000
1743562706.257,-40.527,-36.621,-36.621,-37.109,0.000
1743562706.261,-32.227,-35.645,-42.969,-45.410,0.000
1743562706.265,-23.438,-33.691,-45.410,-49.316,0.000
1743562706.269,-23.926,-38.086,-35.156,-46.875,0.000
1743562706.273,-33.691,-32.715,-32.227,-36.133,0.000
1743562706.277,-41.992,-18.066,-24.414,-23.438,0.000
1743562706.281,-39.062,-20.508,-20.508,-29.297,0.000
1743562706.285,-34.180,-38.574,-30.273,-31.250,0.000
1743562706.288,-33.203,-40.039,-23.438,-34.180,0.000
1743562706.292,-24.414,-38.574,-29.297,-39.551,0.000
1743562706.296,-28.809,-36.621,-37.109,-35.156,0.000
1743562706.300,-24.902,-27.344,-30.762,-22.949,0.000
1743562706.304,-28.809,-24.902,-37.598,-14.648,0.000
1743562706.308,-35.645,-25.879,-37.109,-27.832,0.000
1743562706.312,-24.902,-16.113,-22.949,-29.297,0.000
1743562706.316,-22.949,-19.043,-32.715,-30.762,0.000
1743562706.320,-30.762,-30.273,-38.574,-31.738,0.000
1743562706.324,-35.645,-29.785,-32.227,-26.855,0.000
1743562706.328,-41.016,-32.227,-32.227,-41.016,0.000
1743562706.331,-37.109,-29.297,-26.855,-41.016,0.000
1743562706.335,-26.367,-28.809,-26.367,-44.434,0.000
1743562706.339,-35.645,-32.715,-31.738,-36.621,0.000
1743562706.343,-32.715,-29.785,-28.809,-25.391,0.000
1743562706.347,-38.574,-38.574,-32.227,-37.598,0.000
1743562706.351,-47.852,-41.016,-36.621,-43.945,0.000
1743562706.355,-40.527,-37.109,-30.273,-36.621,0.000
1743562706.359,-37.598,-34.668,-30.273,-40.527,0.000
1743562706.363,-36.621,-38.574,-37.598,-50.293,0.000
1743562706.367,-36.621,-36.133,-34.668,-49.316,0.000
1743562706.371,-51.758,-34.180,-34.180,-57.617,0.000
1743562706.374,-55.176,-38.574,-35.156,-52.246,0.000
1743562706.378,-35.156,-27.832,-26.367,-21.973,0.000
1743562706.382,-35.645,-20.508,-28.809,-25.391,0.000
1743562706.386,-26.367,-20.508,-28.320,-37.598,0.000
1743562706.390,-23.926,-30.762,-20.508,-20.996,0.000
1743562706.394,-40.039,-39.062,-32.227,-18.555,0.000
1743562706.398,-29.785,-32.227,-37.109,-39.062,0.000
1743562706.402,-18.066,-23.926,-28.809,-32.227,0.000
1743562706.406,-40.039,-25.391,-39.551,-24.414,0.000
1743562706.410,-52.246,-31.738,-43.945,-37.598,0.000
1743562706.414,-40.039,-35.645,-35.156,-39.062,0.000
1743562706.417,-20.996,-31.738,-20.508,-30.273,0.000
1743562706.421,-23.438,-16.113,-20.508,-29.785,0.000
1743562706.425,-45.898,-21.484,-32.715,-38.574,0.000
1743562706.429,-44.434,-34.180,-32.715,-45.410,0.000
1743562706.433,-32.227,-35.645,-29.785,-41.504,0.000
1743562706.437,-39.062,-40.039,-26.855,-34.668,0.000
1743562706.441,-46.875,-39.551,-32.715,-23.926,0.000
1743562706.445,-34.180,-32.227,-41.992,-1.465,0.000
1743562706.449,-27.832,-23.438,-33.203,-15.137,0.000
1743562706.453,-35.156,-38.086,-32.227,-42.480,0.000
1743562706.457,-29.297,-43.945,-41.504,-24.902,0.000
1743562706.460,-26.367,-30.762,-29.785,-24.414,0.000
1743562706.464,-38.086,-32.715,-22.949,-38.086,0.000
1743562706.468,-37.109,-38.086,-32.715,-30.762,0.000
1743562706.472,-27.832,-36.133,-35.156,-22.461,0.000
1743562706.476,-32.715,-39.062,-33.691,-38.574,0.000
1743562706.480,-35.156,-40.039,-28.320,-40.039,0.000
1743562706.484,-28.809,-31.738,-26.367,-34.668,0.000
1743562706.488,-26.367,-31.738,-31.738,-33.203,0.000
1743562706.492,-22.949,-34.180,-30.762,-27.832,0.000
1743562706.496,-28.320,-28.809,-32.227,-38.574,0.000
1743562706.500,-27.344,-31.250,-29.785,-32.227,0.000
1743562706.503,-31.738,-44.434,-28.809,-26.855,0.000
1743562706.507,-40.039,-40.527,-24.414,-29.785,0.000
1743562706.511,-29.297,-30.273,-18.555,-28.809,0.000
1743562706.515,-32.715,-31.738,-32.715,-37.598,0.000
1743562706.519,-37.109,-41.016,-33.691,-27.344,0.000
1743562706.523,-24.414,-43.457,-23.438,-2.441,0.000
1743562706.527,-20.020,-40.039,-21.973,-14.160,0.000
1743562706.531,-31.250,-42.480,-26.855,-34.668,0.000
1743562706.534,-36.621,-45.898,-31.250,-39.551,0.000
1743562706.539,-24.902,-45.898,-31.738,-43.457,0.000
1743562706.542,-26.367,-41.992,-24.414,-45.898,0.000
1743562706.546,-33.691,-39.551,-25.391,-38.086,0.000
1743562706.550,-28.320,-41.016,-31.250,-26.855,0.000
1743562706.554,-32.715,-40.039,-32.715,-30.273,0.000
1743562706.558,-31.738,-30.273,-31.250,-22.461,0.000
1743562706.562,-31.738,-32.715,-21.484,-12.207,0.000
1743562706.566,-37.109,-45.898,-24.902,-20.020,0.000
1743562706.570,-40.039,-41.992,-37.109,-33.203,0.000
1743562706.574,-34.180,-31.738,-35.645,-23.926,0.000
1743562706.577,-15.625,-23.438,-23.926,-21.973,0.000
1743562706.581,-32.227,-31.250,-29.785,-41.504,0.000
1743562706.585,-42.480,-35.645,-35.156,-42.969,0.000
1743562706.589,-26.367,-19.043,-26.367,-10.742,0.000
1743562706.593,-34.180,-19.043,-35.645,-15.625,0.000
1743562706.597,-34.668,-29.785,-42.480,-34.180,0.000
1743562706.601,-30.273,-30.273,-36.621,-19.531,0.000
1743562706.605,-21.973,-24.414,-29.785,-19.531,0.000
1743562706.609,-14.160,-20.508,-20.508,-34.668,0.000
1743562706.613,-23.926,-29.297,-22.461,-31.738,0.000
1743562706.617,-33.203,-35.645,-28.320,-27.344,0.000
1743562706.620,-29.785,-29.785,-31.250,-40.527,0.000
1743562706.624,-30.273,-23.438,-26.855,-32.715,0.000
1743562706.628,-34.180,-33.203,-31.250,-27.832,0.000
1743562706.632,-29.297,-31.738,-33.691,-30.273,0.000
1743562706.636,-33.203,-29.297,-30.762,-39.551,0.000
1743562706.640,-34.180,-29.297,-32.715,-23.926,0.000
1743562706.644,-25.879,-20.020,-35.156,-9.766,0.000
1743562706.648,-30.273,-21.973,-32.227,-21.973,0.000
1743562706.652,-33.691,-33.203,-31.250,-29.785,0.000
1743562706.656,-31.738,-37.598,-35.156,-28.320,0.000
1743562706.660,-20.508,-28.320,-25.391,-22.461,0.000
1743562706.663,-26.367,-25.391,-22.949,-25.391,0.000
1743562706.667,-32.715,-21.484,-30.273,-27.832,0.000
1743562706.671,-10.254,-19.531,-26.367,-22.949,0.000
1743562706.675,0.000,-16.602,-20.508,-14.160,0.000
1743562706.679,-14.160,-17.090,-25.879,-13.672,0.000
1743562706.683,-21.973,-33.691,-42.969,-35.645,0.000
1743562706.687,-29.297,-36.133,-39.551,-50.293,0.000
1743562706.691,-41.016,-30.273,-32.227,-40.527,0.000
1743562706.695,-41.016,-30.762,-32.715,-36.621,0.000
1743562706.699,-38.574,-19.531,-30.762,-34.180,0.000
1743562706.702,-33.203,-21.973,-34.180,-29.785,0.000
1743562706.706,-26.367,-27.344,-30.762,-25.391,0.000
1743562706.710,-16.113,-13.184,-19.043,-9.766,0.000
1743562706.714,-30.273,-21.484,-21.484,-9.277,0.000
1743562706.718,-39.551,-31.738,-32.715,-20.020,0.000
1743562706.722,-27.344,-19.043,-33.203,-16.113,0.000
1743562706.726,-39.062,-29.785,-36.133,-11.719,0.000
1743562706.730,-40.527,-37.109,-34.668,-17.578,0.000
1743562706.734,-20.508,-30.762,-33.203,-31.738,0.000
1743562706.738,-24.414,-30.762,-36.621,-27.344,0.000
1743562706.742,-36.621,-26.855,-36.621,-32.715,0.000
1743562706.745,-22.949,-23.926,-39.551,-36.621,0.000
1743562706.749,-32.227,-29.785,-40.039,-32.715,0.000
1743562706.753,-38.086,-30.273,-39.062,-35.645,0.000
1743562706.757,-20.020,-26.367,-33.691,-21.484,0.000
1743562706.761,-10.742,-31.738,-21.484,-12.207,0.000
1743562706.765,-23.438,-35.156,-20.508,-20.996,0.000
1743562706.769,-27.832,-28.320,-23.926,-36.621,0.000
1743562706.773,-20.508,-23.438,-28.320,-28.809,0.000
1743562706.777,-31.250,-23.926,-29.297,-24.902,0.000
1743562706.781,-33.691,-19.531,-28.320,-29.785,0.000
1743562706.785,-30.762,-13.672,-38.086,-42.969,0.000
1743562706.788,-33.203,-24.414,-43.945,-43.945,0.000
1743562706.792,-28.320,-26.367,-35.156,-28.809,0.000
1743562706.796,-27.832,-23.926,-34.180,-34.668,0.000
1743562706.800,-32.715,-36.133,-30.762,-35.645,0.000
1743562706.804,-45.898,-45.898,-23.438,-39.062,0.000
1743562706.808,-35.156,-41.504,-20.508,-46.387,0.000
1743562706.812,-19.043,-23.438,-30.273,-29.785,0.000
1743562706.816,-45.410,-19.531,-41.992,-39.551,0.000
1743562706.820,-55.176,-27.344,-40.527,-36.621,0.000
1743562706.824,-42.969,-27.344,-47.363,-24.414,0.000
1743562706.828,-28.809,-19.043,-47.363,-13.672,0.000
1743562706.831,-31.738,-21.484,-32.715,-17.090,0.000
1743562706.835,-22.461,-29.785,-30.762,-29.297,0.000
1743562706.839,-18.066,-31.738,-27.344,-31.250,0.000
1743562706.843,-34.668,-24.902,-13.672,-29.785,0.000
1743562706.847,-22.461,-18.555,-5.859,-23.438,0.000
1743562706.851,-17.090,-30.273,-21.973,-41.504,0.000
1743562706.855,-27.344,-38.086,-36.133,-50.781,0.000
1743562706.859,-37.598,-34.668,-31.738,-37.109,0.000
1743562706.862,-41.504,-32.715,-29.297,-22.949,0.000
1743562706.867,-32.715,-30.762,-30.762,-20.996,0.000
1743562706.871,-32.715,-32.715,-34.180,-32.715,0.000
1743562706.874,-25.879,-23.438,-30.273,-39.062,0.000
1743562706.878,-13.184,-11.719,-24.902,-21.484,0.000
1743562706.882,-15.137,-13.672,-26.367,-31.738,0.000
1743562706.886,-19.043,-24.414,-30.762,-39.062,0.000
1743562706.890,-16.113,-20.996,-32.227,-21.973,0.000
1743562706.894,-24.902,-21.484,-37.109,-25.391,0.000
1743562706.898,-26.367,-22.949,-31.250,-20.996,0.000
1743562706.902,-29.297,-23.438,-29.297,-38.574,0.000
1743562706.905,-43.945,-23.926,-36.133,-51.270,0.000
1743562706.909,-38.574,-21.973,-28.809,-35.156,0.000
1743562706.914,-37.598,-24.414,-25.391,-42.969,0.000
1743562706.917,-46.387,-29.297,-32.227,-58.594,0.000
1743562706.921,-49.805,-32.715,-34.180,-37.109,0.000
1743562706.925,-42.969,-29.785,-32.715,-28.809,0.000
1743562706.929,-35.645,-23.926,-30.273,-46.875,0.000
1743562706.933,-37.598,-21.484,-27.832,-48.340,0.000
1743562706.937,-45.898,-27.832,-30.762,-54.199,0.000
1743562706.941,-50.293,-31.250,-32.715,-60.059,0.000
1743562706.945,-43.945,-23.926,-24.902,-51.758,0.000
1743562706.948,-47.363,-25.879,-19.531,-55.664,0.000
1743562706.952,-54.199,-26.855,-25.879,-54.688,0.000
1743562706.956,-66.895,-27.344,-32.227,-66.895,0.000
1743562706.960,-73.730,-29.297,-32.715,-83.008,0.000
1743562706.964,-76.660,-37.598,-36.133,-77.148,0.000
1743562706.968,-83.984,-42.969,-40.039,-79.590,0.000
1743562706.972,-73.242,-27.344,-40.039,-83.496,0.000
1743562706.976,-82.031,-24.902,-29.297,-79.102,0.000
1743562706.980,-102.539,-36.621,-23.926,-93.750,0.000
1743562706.984,-105.469,-43.945,-23.926,-103.516,0.000
1743562706.988,-104.980,-49.316,-32.227,-98.145,0.000
1743562706.991,-103.516,-45.410,-49.316,-100.098,0.000
1743562706.995,-96.680,-33.203,-45.410,-107.910,0.000
1743562706.999,-100.586,-29.297,-37.598,-118.164,0.000
1743562707.003,-113.770,-33.691,-40.039,-108.887,0.000
1743562707.007,-115.723,-32.227,-37.598,-109.375,0.000
1743562707.011,-107.910,-33.691,-29.297,-121.094,0.000
1743562707.015,-105.957,-33.691,-25.879,-99.609,0.000
1743562707.019,-106.934,-36.133,-32.227,-93.750,0.000
1743562707.023,-113.281,-29.297,-27.344,-105.957,0.000
1743562707.027,-120.117,-21.484,-32.227,-120.605,0.000
1743562707.031,-112.793,-24.902,-44.434,-112.793,0.000
1743562707.034,-101.074,-24.414,-44.434,-106.934,0.000
1743562707.038,-95.703,-16.602,-37.598,-104.980,0.000
1743562707.042,-87.402,-13.184,-25.879,-96.191,0.000
1743562707.046,-71.289,-15.137,-31.738,-78.613,0.000
1743562707.050,-64.941,-22.949,-41.016,-70.801,0.000
1743562707.054,-67.383,-24.902,-30.273,-62.988,0.000
1743562707.058,-69.336,-27.344,-29.297,-46.875,0.000
1743562707.062,-55.664,-27.344,-26.855,-50.293,0.000
1743562707.066,-41.504,-28.320,-14.160,-41.992,0.000
1743562707.070,-40.527,-40.527,-14.160,-24.902,0.000
1743562707.074,-31.738,-44.434,-25.391,-29.297,0.000
1743562707.077,-20.508,-37.109,-27.344,-20.996,0.000
1743562707.081,-20.508,-35.156,-25.391,-7.324,0.000
1743562707.085,-15.137,-31.738,-21.484,4.883,0.000
1743562707.089,2.930,-20.508,-15.625,15.137,0.000
1743562707.093,7.324,-26.367,-28.320,-0.488,0.000
1743562707.097,4.395,-30.762,-29.297,-6.348,0.000
1743562707.101,-3.906,-28.809,-13.184,-7.812,0.000
1743562707.105,-23.926,-37.109,-20.508,-15.137,0.000
1743562707.109,-27.344,-42.969,-28.809,-0.977,0.000
1743562707.113,-10.742,-40.039,-31.738,-5.859,0.000
1743562707.117,-5.859,-35.156,-42.969,-10.254,0.000
1743562707.120,-9.766,-34.668,-40.039,-20.996,0.000
1743562707.124,-9.277,-35.645,-32.227,-10.254,0.000
1743562707.128,0.000,-33.691,-33.203,-1.953,0.000
1743562707.132,1.953,-38.574,-34.668,-14.160,0.000
1743562707.136,-5.371,-38.086,-33.691,-13.184,0.000
1743562707.140,-8.789,-32.227,-23.926,-18.555,0.000
1743562707.144,9.766,-32.227,-26.855,-6.836,0.000
1743562707.148,14.648,-20.996,-27.344,6.836,0.000
1743562707.152,9.766,-12.695,-17.578,2.930,0.000
1743562707.156,7.812,-14.160,-16.602,-7.812,0.000
1743562707.160,-3.906,-23.926,-25.391,-4.883,0.000
1743562707.163,-2.930,-25.391,-31.250,-6.836,0.000
1743562707.167,-2.930,-18.555,-22.949,0.000,0.000
1743562707.171,1.953,-22.461,-20.508,11.230,0.000
1743562707.175,6.348,-28.809,-32.715,2.930,0.000
1743562707.179,4.395,-26.855,-35.645,-13.184,0.000
1743562707.183,6.836,-20.996,-29.297,8.789,0.000
1743562707.187,3.418,-21.484,-18.066,9.766,0.000
1743562707.191,5.859,-21.973,-13.184,-9.766,0.000
1743562707.195,-14.160,-30.273,-26.367,-7.812,0.000
1743562707.199,-23.926,-34.180,-33.203,-18.066,0.000
1743562707.203,-5.371,-20.508,-33.203,2.930,0.000
1743562707.206,-12.695,-24.902,-36.133,-1.953,0.000
1743562707.210,-22.461,-30.762,-34.668,-15.137,0.000
1743562707.214,-14.648,-32.227,-26.855,1.465,0.000
1743562707.218,-13.672,-32.227,-33.691,-6.836,0.000
1743562707.222,-24.414,-38.574,-38.086,-2.930,0.000
1743562707.226,-18.066,-35.645,-26.367,-25.391,0.000
1743562707.230,-25.879,-39.551,-21.973,-30.273,0.000
1743562707.234,-26.855,-48.340,-32.227,-17.090,0.000
1743562707.237,-25.391,-39.551,-41.504,-29.297,0.000
1743562707.242,-20.020,-37.598,-44.434,-20.020,0.000
1743562707.246,-15.137,-27.832,-41.016,-17.578,0.000
1743562707.249,-26.367,-23.438,-39.062,-15.137,0.000
1743562707.253,-19.531,-34.180,-41.504,-18.555,0.000
1743562707.257,-25.391,-34.668,-40.527,-23.926,0.000
1743562707.261,-41.504,-31.738,-40.039,-35.645,0.000
1743562707.265,-39.551,-32.227,-36.133,-39.062,0.000
1743562707.269,-33.203,-30.273,-27.832,-13.184,0.000
1743562707.273,-22.949,-35.156,-25.391,0.000,0.000
1743562707.277,-20.996,-35.645,-24.902,-23.926,0.000
1743562707.280,-23.926,-28.320,-23.926,-40.527,0.000
1743562707.284,-21.973,-33.691,-31.738,-40.039,0.000
1743562707.289,-18.066,-39.062,-32.715,-26.367,0.000
1743562707.292,-28.320,-34.180,-26.367,-25.391,0.000
1743562707.296,-39.062,-29.297,-32.715,-27.344,0.000
1743562707.300,-32.715,-28.809,-36.133,-14.160,0.000
1743562707.304,-28.809,-25.879,-26.855,-6.836,0.000
1743562707.308,-31.250,-22.461,-26.367,-7.324,0.000
1743562707.312,-31.738,-26.367,-37.109,-17.090,0.000
1743562707.316,-26.367,-37.109,-34.668,-21.484,0.000
1743562707.320,-27.344,-46.875,-30.273,-17.578,0.000
1743562707.323,-29.297,-46.875,-43.457,-21.973,0.000
1743562707.327,-17.090,-37.598,-44.922,-22.461,0.000
1743562707.331,-15.625,-33.203,-39.062,-28.809,0.000
1743562707.335,-22.461,-35.156,-32.715,-26.855,0.000
1743562707.339,-23.438,-36.621,-26.367,-10.254,0.000
1743562707.343,-31.738,-30.762,-29.297,-18.066,0.000
1743562707.347,-32.227,-29.785,-26.855,-17.578,0.000
1743562707.351,-31.738,-34.180,-25.879,-31.250,0.000
1743562707.355,-36.133,-41.992,-26.855,-50.781,0.000
1743562707.359,-34.180,-39.551,-30.762,-23.438,0.000
1743562707.363,-35.156,-31.738,-43.945,-19.043,0.000
1743562707.366,-26.367,-29.297,-36.621,-34.668,0.000
1743562707.370,-20.996,-32.715,-32.715,-38.574,0.000
1743562707.374,-23.926,-34.668,-39.062,-29.785,0.000
1743562707.378,-15.625,-27.832,-28.809,-20.508,0.000
1743562707.382,-21.973,-29.297,-20.996,-15.137,0.000
1743562707.386,-47.363,-32.227,-21.973,-3.418,0.000
1743562707.390,-40.527,-28.809,-24.414,-14.648,0.000
1743562707.394,-36.621,-37.109,-30.273,-36.621,0.000
1743562707.398,-35.645,-37.598,-28.809,-26.367,0.000
1743562707.402,-28.320,-32.227,-21.484,-23.926,0.000
1743562707.406,-29.297,-35.156,-22.949,-31.738,0.000
1743562707.409,-21.484,-29.297,-24.902,-28.320,0.000
1743562707.413,-28.320,-28.320,-27.832,-20.996,0.000
1743562707.417,-23.438,-29.785,-31.738,-12.207,0.000
1743562707.421,-17.578,-24.902,-29.297,-18.555,0.000
1743562707.425,-26.855,-24.414,-32.715,-15.625,0.000
1743562707.429,-26.367,-23.438,-32.715,-17.090,0.000
1743562707.433,-27.832,-25.391,-29.297,-28.809,0.000
1743562707.437,-31.250,-33.203,-29.297,-25.879,0.000
1743562707.441,-26.855,-36.133,-28.320,-24.902,0.000
1743562707.445,-30.273,-34.180,-31.738,-23.926,0.000
1743562707.449,-39.551,-36.621,-34.668,-31.250,0.000
1743562707.452,-34.668,-37.598,-30.273,-28.809,0.000
1743562707.456,-33.691,-33.203,-28.809,-20.996,0.000
1743562707.460,-33.691,-24.902,-26.855,-28.320,0.000
1743562707.464,-31.250,-20.020,-28.809,-30.273,0.000
1743562707.468,-23.438,-30.273,-36.133,-15.625,0.000
1743562707.472,-26.855,-33.691,-35.156,-18.066,0.000
1743562707.476,-39.551,-39.551,-37.598,-37.598,0.000
1743562707.480,-34.180,-37.598,-36.133,-30.273,0.000
1743562707.484,-20.508,-29.297,-31.738,-22.461,0.000
1743562707.488,-23.926,-35.156,-32.227,-19.043,0.000
1743562707.492,-30.762,-37.598,-34.668,-30.273,0.000
1743562707.495,-17.090,-28.809,-37.598,-31.250,0.000
1743562707.499,-20.996,-27.344,-38.086,-20.508,0.000
1743562707.503,-38.086,-32.227,-35.645,-24.902,0.000
1743562707.507,-36.621,-33.691,-33.203,-28.320,0.000
1743562707.511,-32.715,-36.621,-29.297,-13.672,0.000
1743562707.515,-39.551,-44.922,-28.320,-24.902,0.000
1743562707.519,-36.621,-41.504,-23.926,-31.738,0.000
1743562707.523,0.000,-38.086,-23.926,-14.160,0.000
1743562707.527,0.000,-31.738,-27.344,-17.090,0.000
1743562707.531,0.000,-33.691,-25.879,-39.062,0.000
1743562707.535,0.000,-35.156,-27.344,-27.344,0.000
1743562707.538,0.000,-29.297,-30.273,-15.625,0.000
1743562707.542,0.000,-24.902,-27.832,-22.461,0.000
1743562707.546,0.000,-30.762,-23.926,-20.020,0.000
1743562707.550,0.000,-37.109,-27.832,-23.926,0.000
1743562707.554,0.000,-32.227,-34.180,-23.926,0.000
1743562707.558,0.000,-39.551,-44.434,-40.527,0.000
1743562707.562,0.000,-44.434,-37.109,-41.016,0.000
1743562707.566,0.000,-34.668,-24.902,-25.879,0.000
1743562707.570,-25.879,-35.645,-34.180,-23.438,0.000
1743562707.574,-20.020,-40.527,-35.645,-20.508,0.000
1743562707.578,-23.926,-41.016,-33.691,-27.832,0.000
1743562707.581,-21.973,-36.133,-31.738,-29.785,0.000
1743562707.585,-20.020,-37.109,-23.438,-24.902,0.000
1743562707.589,-20.020,-33.203,-18.066,-17.090,0.000
1743562707.593,-31.738,-34.180,-21.484,-26.855,0.000
1743562707.597,-47.852,-36.621,-30.273,-37.109,0.000
1743562707.601,-52.734,-30.273,-28.809,-35.156,0.000
1743562707.605,-43.457,-28.320,-28.320,-44.922,0.000
1743562707.609,-32.227,-30.762,-34.668,-46.387,0.000
1743562707.612,-34.180,-33.203,-42.480,-44.434,0.000
1743562707.617,-31.250,-32.227,-37.598,-31.250,0.000
1743562707.621,-34.180,-28.320,-25.879,-30.273,0.000
1743562707.624,-34.180,-25.879,-22.461,-40.527,0.000
1743562707.628,-24.902,-26.855,-23.438,-31.738,0.000
1743562707.632,-34.180,-34.668,-30.762,-40.527,0.000
1743562707.636,-23.926,-30.273,-33.203,-45.410,0.000
1743562707.640,-12.207,-25.879,-32.227,-27.832,0.000
1743562707.644,-30.762,-31.738,-25.879,-13.184,0.000
1743562707.648,-21.484,-33.691,-18.066,-10.742,0.000
1743562707.652,-4.883,-20.996,-15.625,-7.812,0.000
1743562707.655,-16.113,-25.391,-22.461,-16.113,0.000
1743562707.659,-21.973,-30.762,-27.832,-41.504,0.000
1743562707.663,-10.742,-14.160,-21.484,-34.668,0.000
1743562707.667,-29.297,-17.578,-31.250,-31.738,0.000
1743562707.671,-46.387,-22.461,-33.691,-36.133,0.000
1743562707.675,-47.852,-22.461,-24.902,-23.438,0.000
1743562707.679,-39.062,-27.344,-23.438,-30.762,0.000
1743562707.683,-37.598,-25.391,-21.484,-45.898,0.000
1743562707.687,-38.574,-27.344,-25.879,-29.297,0.000
1743562707.691,-31.738,-26.367,-32.715,-25.879,0.000
1743562707.695,-29.297,-21.484,-19.531,-35.156,0.000
1743562707.698,-25.879,-25.391,-20.996,-28.320,0.000
1743562707.702,-17.090,-22.461,-28.320,-24.414,0.000
1743562707.706,-16.602,-22.461,-26.855,-26.367,0.000
1743562707.710,-26.855,-37.109,-37.598,-41.504,0.000
1743562707.714,-24.414,-38.086,-39.062,-46.875,0.000
1743562707.718,-18.555,-30.273,-34.180,-43.457,0.000
1743562707.722,-25.879,-27.832,-35.645,-55.176,0.000
1743562707.726,-49.805,-30.762,-33.203,-54.199,0.000
1743562707.730,-37.598,-26.367,-22.461,-33.203,0.000
1743562707.734,-27.832,-19.531,-17.578,-27.344,0.000
1743562707.738,-30.762,-27.344,-23.926,-27.344,0.000
1743562707.741,-26.855,-27.344,-23.926,-25.879,0.000
1743562707.745,-45.898,-35.645,-32.227,-31.250,0.000
1743562707.749,-49.316,-39.551,-41.016,-20.020,0.000
1743562707.753,-36.133,-37.109,-31.738,-17.090,0.000
1743562707.757,-38.574,-43.457,-23.438,-34.668,0.000
1743562707.761,-34.180,-39.062,-22.949,-46.387,0.000
1743562707.765,-15.137,-23.926,-30.762,-17.578,0.000
1743562707.769,-17.090,-22.949,-28.809,-11.719,0.000
1743562707.773,-33.691,-28.320,-27.832,-27.344,0.000
1743562707.777,-30.762,-25.391,-35.156,-29.785,0.000
1743562707.781,-16.113,-23.438,-33.203,-20.996,0.000
1743562707.784,-18.066,-28.809,-31.738,-17.578,0.000
1743562707.788,-16.602,-32.715,-24.414,-29.785,0.000
1743562707.792,-13.672,-33.203,-20.508,-30.273,0.000
1743562707.796,-13.184,-33.691,-24.414,-24.414,0.000
1743562707.800,-27.344,-40.527,-32.715,-32.715,0.000
1743562707.804,-42.969,-43.945,-31.738,-36.133,0.000
1743562707.808,-34.180,-31.250,-22.949,-34.668,0.000
1743562707.812,-14.160,-29.785,-30.273,-30.762,0.000
1743562707.816,-18.555,-32.227,-38.086,-14.160,0.000
1743562707.820,-42.969,-29.297,-30.273,-32.227,0.000
1743562707.823,-53.223,-35.156,-26.855,-58.105,0.000
1743562707.827,-50.781,-35.156,-29.297,-38.086,0.000
1743562707.831,-33.203,-31.738,-30.762,-40.527,0.000
1743562707.835,-23.926,-41.016,-36.133,-39.551,0.000
1743562707.839,-33.691,-41.992,-41.504,-18.066,0.000
1743562707.843,-29.297,-40.039,-43.945,-28.320,0.000
1743562707.847,-16.602,-33.203,-35.156,-26.367,0.000
1743562707.851,-9.277,-27.344,-10.742,1.465,0.000
1743562707.855,-16.113,-32.227,-13.184,-5.859,0.000
1743562707.859,-14.648,-33.691,-26.855,-37.109,0.000
1743562707.863,-17.578,-27.344,-29.297,-24.414,0.000
1743562707.866,-33.691,-29.297,-37.598,-17.578,0.000
1743562707.870,-35.156,-37.598,-40.039,-35.645,0.000
1743562707.874,-26.855,-38.574,-34.180,-40.039,0.000
1743562707.878,-25.391,-33.203,-27.832,-30.762,0.000
1743562707.882,-27.832,-30.762,-28.320,-32.715,0.000
1743562707.886,-23.926,-32.715,-30.273,-36.621,0.000
1743562707.890,-26.367,-32.715,-31.738,-36.621,0.000
1743562707.894,-13.184,-27.344,-23.926,-25.391,0.000
1743562707.898,-12.207,-28.320,-25.879,-30.762,0.000
1743562707.902,-24.902,-35.156,-40.527,-27.832,0.000
1743562707.906,-31.250,-30.762,-34.668,-22.461,0.000
1743562707.909,-25.879,-19.043,-19.043,-28.320,0.000
1743562707.913,-21.973,-22.949,-15.137,-24.902,0.000
1743562707.917,-24.902,-30.762,-19.043,-34.668,0.000
1743562707.921,-24.414,-29.785,-18.066,-28.809,0.000
1743562707.925,-27.832,-23.438,-18.555,-25.879,0.000
1743562707.929,-32.715,-18.066,-24.414,-25.391,0.000
1743562707.933,-54.199,-20.508,-23.926,-33.691,0.000
1743562707.937,-50.781,-20.996,-17.090,-41.992,0.000
1743562707.941,-45.898,-20.508,-22.461,-48.828,0.000
1743562707.945,-45.410,-19.531,-15.625,-32.227,0.000
1743562707.949,-42.480,-25.391,-8.301,-46.387,0.000
1743562707.952,-54.688,-25.879,-15.625,-70.801,0.000
1743562707.956,-79.590,-27.832,-18.555,-68.848,0.000
1743562707.960,-90.332,-31.250,-20.020,-81.055,0.000
1743562707.964,-52.734,-22.949,-16.113,-75.684,0.000
1743562707.968,-69.824,-25.391,-21.973,-71.289,0.000
1743562707.972,-104.492,-32.227,-30.273,-81.543,0.000
1743562707.976,-98.145,-26.855,-26.855,-82.031,0.000
1743562707.980,-91.797,-21.973,-20.508,-89.844,0.000
1743562707.984,-86.914,-31.738,-28.320,-83.496,0.000
1743562707.987,-104.492,-44.434,-38.086,-104.004,0.000
1743562707.992,-107.910,-36.621,-25.879,-110.352,0.000
1743562707.995,-113.281,-38.574,-12.207,-89.844,0.000
1743562707.999,-128.418,-42.480,-16.113,-104.004,0.000
1743562708.003,-112.305,-42.969,-20.996,-122.559,0.000
1743562708.007,-101.562,-43.945,-19.043,-111.328,0.000
1743562708.011,-111.816,-38.086,-18.555,-100.586,0.000
1743562708.015,-109.863,-29.297,-13.672,-103.027,0.000
1743562708.019,-107.422,-35.645,-19.531,-98.145,0.000
1743562708.023,-119.141,-41.504,-21.973,-99.609,0.000
1743562708.026,-119.629,-40.039,-19.531,-89.844,0.000
1743562708.030,-111.816,-42.969,-21.484,-89.844,0.000
1743562708.034,-101.562,-34.180,-20.996,-92.773,0.000
1743562708.038,-88.867,-34.668,-21.484,-88.379,0.000
1743562708.042,-72.266,-39.062,-28.320,-77.148,0.000
1743562708.046,-71.777,-40.039,-30.273,-57.617,0.000
1743562708.050,-63.477,-42.480,-25.391,-54.199,0.000
1743562708.054,-58.105,-33.691,-30.762,-51.758,0.000
1743562708.058,-45.410,-22.461,-33.691,-41.504,0.000
1743562708.062,-31.738,-15.137,-19.043,-35.645,0.000
1743562708.066,-41.016,-27.344,-26.367,-41.016,0.000
1743562708.069,-41.504,-38.574,-43.457,-52.734,0.000
1743562708.073,-28.320,-29.297,-34.668,-51.270,0.000
1743562708.077,-12.695,-27.344,-30.273,-29.297,0.000
1743562708.081,-11.230,-30.762,-34.668,-10.742,0.000
1743562708.085,-18.555,-31.250,-40.527,-12.695,0.000
1743562708.089,-14.648,-27.832,-42.969,-7.812,0.000
1743562708.093,-6.836,-18.555,-40.039,-0.488,0.000
1743562708.097,-6.348,-15.137,-39.551,-3.418,0.000
1743562708.101,-7.812,-18.555,-38.086,8.301,0.000
1743562708.105,2.930,-20.020,-36.133,10.742,0.000
1743562708.109,-4.395,-32.227,-32.227,2.930,0.000
1743562708.112,-24.902,-45.410,-30.273,-1.465,0.000
1743562708.116,-2.441,-41.504,-26.367,11.719,0.000
1743562708.120,5.859,-38.574,-32.227,13.184,0.000
1743562708.124,-10.742,-35.645,-32.715,-0.488,0.000
1743562708.128,-5.859,-29.785,-35.645,-6.348,0.000
1743562708.132,10.742,-25.391,-36.621,0.977,0.000
1743562708.136,1.465,-30.273,-30.273,1.465,0.000
1743562708.140,-13.672,-31.738,-35.156,7.812,0.000
1743562708.144,-8.301,-27.832,-46.387,17.578,0.000
1743562708.148,-10.742,-33.691,-54.688,4.395,0.000
1743562708.152,-4.395,-25.391,-40.039,16.602,0.000
1743562708.155,25.879,-20.996,-29.297,20.996,0.000
1743562708.159,36.621,-25.879,-34.668,5.371,0.000
1743562708.163,26.855,-23.926,-36.133,14.648,0.000
1743562708.167,6.836,-23.438,-33.203,5.859,0.000
1743562708.171,-5.371,-18.066,-22.461,-5.859,0.000
1743562708.175,4.395,-10.254,-17.090,15.625,0.000
1743562708.179,-0.488,-23.438,-13.184,28.320,0.000
1743562708.183,2.441,-34.668,-16.113,31.738,0.000
1743562708.187,6.836,-25.879,-28.809,8.789,0.000
1743562708.191,10.254,-19.531,-30.762,-0.977,0.000
1743562708.195,16.602,-25.879,-29.297,4.395,0.000
1743562708.198,-1.953,-26.367,-26.855,-7.324,0.000
1743562708.202,-14.160,-25.879,-35.156,-15.625,0.000
1743562708.206,-7.812,-27.344,-45.898,-5.859,0.000
1743562708.210,-3.418,-19.531,-35.645,13.672,0.000
1743562708.214,-5.859,-16.602,-27.344,4.883,0.000
1743562708.218,-1.465,-20.996,-37.109,-12.207,0.000
1743562708.222,-10.742,-24.414,-38.086,-21.484,0.000
1743562708.226,-5.371,-20.996,-24.902,-12.695,0.000
1743562708.230,-16.113,-25.879,-29.297,-25.879,0.000
1743562708.234,-20.020,-28.809,-28.809,-34.668,0.000
1743562708.238,-7.324,-26.855,-28.320,-21.484,0.000
1743562708.241,-3.418,-26.367,-39.062,-13.184,0.000
1743562708.245,2.930,-30.762,-43.457,-13.184,0.000
1743562708.249,6.836,-40.527,-36.133,-11.230,0.000
1743562708.253,18.066,-38.086,-24.902,-0.977,0.000
1743562708.257,-5.859,-30.273,-31.250,-12.695,0.000
1743562708.261,-26.367,-24.414,-30.762,-9.766,0.000
1743562708.265,-7.324,-22.461,-21.973,7.812,0.000
1743562708.269,2.441,-25.879,-32.227,-5.371,0.000
1743562708.273,-12.695,-32.227,-41.504,-20.508,0.000
1743562708.277,-26.367,-32.227,-36.133,-12.695,0.000
1743562708.281,-30.273,-26.367,-28.809,-4.883,0.000
1743562708.284,-26.855,-25.391,-27.344,-5.371,0.000
1743562708.288,-23.926,-30.762,-25.879,-13.672,0.000
1743562708.292,-28.809,-40.527,-36.621,-22.949,0.000
1743562708.296,-17.578,-40.039,-45.898,-28.320,0.000
1743562708.300,-7.812,-36.621,-37.598,-14.160,0.000
1743562708.304,-20.020,-34.180,-20.020,0.488,0.000
1743562708.308,-33.203,-26.367,-20.996,-3.906,0.000
1743562708.312,-35.645,-25.391,-35.645,-17.578,0.000
1743562708.315,-35.156,-26.367,-35.156,-28.320,0.000
1743562708.320,-23.926,-27.344,-26.855,-15.137,0.000
1743562708.324,-22.461,-25.879,-24.902,-23.438,0.000
1743562708.327,-26.367,-28.809,-40.039,-22.949,0.000
1743562708.331,-32.715,-32.227,-41.016,-13.184,0.000
1743562708.335,-32.715,-32.715,-32.715,-49.316,0.000
1743562708.339,-27.832,-36.133,-30.273,-48.340,0.000
1743562708.343,-31.250,-35.156,-27.344,-27.344,0.000
1743562708.347,-32.715,-26.855,-36.133,-18.555,0.000
1743562708.351,-39.551,-31.738,-36.621,-22.461,0.000
1743562708.355,-51.758,-46.387,-30.273,-30.273,0.000
1743562708.359,-40.527,-33.691,-24.414,-20.996,0.000
1743562708.362,-31.738,-24.414,-26.855,-34.180,0.000
1743562708.367,-16.602,-35.645,-33.203,-37.109,0.000
1743562708.370,-22.461,-37.109,-30.762,-25.879,0.000
1743562708.374,-46.875,-32.715,-29.297,-21.973,0.000
1743562708.378,-38.574,-33.691,-31.738,-25.879,0.000
1743562708.382,-27.832,-34.180,-31.738,-35.645,0.000
1743562708.386,-30.273,-29.785,-31.250,-26.367,0.000
1743562708.390,-30.762,-35.156,-34.180,-26.367,0.000
1743562708.394,-27.832,-35.156,-34.180,-40.039,0.000
1743562708.398,-24.902,-28.809,-34.180,-51.758,0.000
1743562708.402,-39.551,-38.086,-41.992,-68.848,0.000
1743562708.405,-39.062,-39.062,-42.480,-40.527,0.000
1743562708.409,-22.949,-32.227,-34.180,-21.973,0.000
1743562708.413,-31.250,-34.180,-32.715,-30.273,0.000
1743562708.417,-37.598,-33.203,-38.574,-19.043,0.000
1743562708.421,-36.621,-30.273,-41.016,-12.695,0.000
1743562708.425,-26.855,-35.156,-42.480,-29.785,0.000
1743562708.429,-26.367,-35.156,-45.898,-49.316,0.000
1743562708.433,-36.133,-34.180,-47.852,-44.434,0.000
1743562708.437,-32.715,-34.668,-43.945,-43.945,0.000
1743562708.441,-30.273,-34.668,-50.293,-32.715,0.000
1743562708.444,-32.227,-31.738,-44.922,-13.184,0.000
1743562708.448,-42.480,-33.691,-31.250,-22.949,0.000
1743562708.452,-51.270,-41.016,-22.949,-26.367,0.000
1743562708.456,-48.340,-52.246,-24.902,-26.855,0.000
1743562708.460,-40.527,-55.176,-26.855,-30.762,0.000
1743562708.464,-41.504,-52.246,-27.832,-29.297,0.000
1743562708.468,-29.785,-44.922,-28.320,-19.043,0.000
1743562708.472,-21.484,-39.551,-27.832,-27.344,0.000
1743562708.476,-37.598,-44.922,-28.809,-26.855,0.000
1743562708.480,-49.805,-43.945,-20.996,-17.090,0.000
1743562708.484,-36.133,-36.133,-11.719,-19.043,0.000
1743562708.487,-34.668,-37.109,-26.855,-26.367,0.000
1743562708.491,-34.668,-40.527,-31.250,-25.879,0.000
1743562708.495,-28.320,-34.180,-17.090,-14.160,0.000
1743562708.499,-22.461,-33.691,-24.414,-17.090,0.000
1743562708.503,-31.250,-36.133,-26.855,-14.160,0.000
1743562708.507,-42.480,-40.527,-16.113,-17.090,0.000
1743562708.511,-36.621,-40.527,-8.301,-30.273,0.000
1743562708.515,-31.738,-40.527,-14.648,-20.996,0.000
1743562708.519,-41.016,-52.734,-25.391,-15.625,0.000
1743562708.523,-44.434,-50.781,-28.809,-29.785,0.000
1743562708.527,-42.969,-40.039,-29.297,-27.344,0.000
1743562708.530,-36.133,-36.621,-33.203,-21.484,0.000
1743562708.534,-23.926,-31.250,-31.250,-11.719,0.000
1743562708.538,-43.457,-32.227,-24.414,-32.715,0.000
1743562708.542,-40.039,-37.109,-26.855,-38.086,0.000
1743562708.546,-28.809,-36.621,-28.809,-29.785,0.000
1743562708.550,-41.016,-41.016,-27.344,-31.250,0.000
1743562708.554,-41.992,-41.504,-24.902,-32.715,0.000
1743562708.558,-43.457,-36.133,-22.949,-38.086,0.000
1743562708.562,-49.805,-38.574,-21.484,-40.039,0.000
1743562708.566,-48.828,-37.598,-20.508,-31.250,0.000
1743562708.570,-47.363,-37.598,-22.461,-20.508,0.000
1743562708.573,-40.527,-40.039,-25.879,-30.762,0.000
1743562708.577,-33.203,-46.875,-31.738,-18.066,0.000
1743562708.581,-34.668,-46.875,-30.762,-7.324,0.000
1743562708.585,-46.387,-38.574,-27.344,-24.902,0.000
1743562708.589,-46.875,-35.645,-29.297,-33.691,0.000
1743562708.593,-41.016,-39.551,-28.320,-31.250,0.000
1743562708.597,-52.246,-46.387,-36.133,-26.855,0.000
1743562708.601,-52.734,-48.828,-34.180,-27.344,0.000
1743562708.605,-38.086,-39.062,-23.926,-30.762,0.000
1743562708.609,-17.090,-28.320,-22.949,-28.809,0.000
1743562708.613,-14.160,-31.250,-20.996,-36.621,0.000
1743562708.616,-27.832,-34.668,-18.066,-36.621,0.000
1743562708.620,-31.738,-34.180,-21.973,-30.273,0.000
1743562708.624,-34.668,-39.062,-31.250,-39.062,0.000
1743562708.628,-27.832,-35.645,-27.344,-31.250,0.000
1743562708.632,-28.320,-31.250,-23.438,-17.090,0.000
1743562708.636,-38.086,-30.762,-32.227,-20.508,0.000
1743562708.640,-46.875,-37.109,-40.039,-28.320,0.000
1743562708.644,-36.621,-38.574,-37.109,-34.180,0.000
1743562708.648,-29.785,-40.039,-36.621,-38.086,0.000
1743562708.652,-46.875,-43.945,-37.109,-37.598,0.000
1743562708.656,-56.152,-43.945,-31.738,-23.438,0.000
1743562708.659,-48.828,-41.504,-28.809,-20.508,0.000
1743562708.663,-44.922,-33.691,-35.645,-35.156,0.000
1743562708.667,-48.340,-27.344,-33.691,-21.973,0.000
1743562708.671,-41.992,-35.156,-19.531,-12.207,0.000
1743562708.675,-27.344,-43.945,-26.367,-3.418,0.000
1743562708.679,-22.949,-25.879,-31.250,-8.789,0.000
1743562708.683,-37.109,-22.461,-27.344,-40.527,0.000
1743562708.687,-47.363,-33.203,-31.738,-45.410,0.000
1743562708.690,-43.945,-30.762,-33.691,-48.828,0.000
1743562708.695,-39.551,-25.391,-37.598,-52.246,0.000
1743562708.699,-35.156,-21.484,-50.293,-41.504,0.000
1743562708.702,-36.133,-20.508,-54.688,-42.480,0.000
1743562708.706,-37.598,-25.879,-51.270,-29.785,0.000
1743562708.710,-38.086,-31.738,-41.016,-24.414,0.000
1743562708.714,-30.762,-32.715,-34.668,-43.945,0.000
1743562708.718,-23.926,-33.691,-30.273,-41.504,0.000
1743562708.722,-20.996,-34.180,-24.902,-36.133,0.000
1743562708.726,-26.367,-36.133,-36.133,-31.738,0.000
1743562708.730,-34.180,-27.344,-42.969,-36.133,0.000
1743562708.733,-41.504,-27.344,-47.852,-40.527,0.000
1743562708.737,-39.551,-32.715,-42.480,-37.109,0.000
1743562708.742,-18.066,-25.391,-35.156,-37.598,0.000
1743562708.745,-21.973,-25.391,-35.645,-36.133,0.000
1743562708.749,-30.273,-28.809,-29.785,-37.598,0.000
1743562708.753,-20.996,-19.531,-25.879,-20.508,0.000
1743562708.757,-22.949,-21.973,-46.875,-7.324,0.000
1743562708.761,-13.184,-30.762,-50.293,-28.320,0.000
1743562708.765,-11.230,-24.414,-37.598,-29.297,0.000
1743562708.769,-30.273,-19.531,-37.598,-7.812,0.000
1743562708.773,-39.551,-20.996,-34.180,-15.137,0.000
1743562708.776,-41.016,-16.602,-24.414,-26.855,0.000
1743562708.780,-21.484,-15.137,-24.902,-19.043,0.000
1743562708.784,-15.625,-24.902,-39.551,-30.273,0.000
1743562708.788,-18.066,-23.926,-43.457,-36.133,0.000
1743562708.792,-14.160,-20.508,-35.156,-27.344,0.000
1743562708.796,-10.742,-23.438,-23.926,-18.555,0.000
1743562708.800,-2.441,-25.879,-20.020,-19.043,0.000
1743562708.804,-13.672,-27.832,-21.973,-33.203,0.000
1743562708.808,-31.250,-24.414,-33.203,-23.438,0.000
1743562708.812,-34.668,-30.762,-46.875,-22.461,0.000
1743562708.816,-32.715,-29.785,-41.504,-37.598,0.000
1743562708.819,-22.461,-14.648,-36.621,-23.926,0.000
1743562708.823,-2.930,-14.648,-36.133,-19.531,0.000
1743562708.827,-10.742,-24.902,-25.391,-24.902,0.000
1743562708.831,-30.273,-26.855,-8.789,-23.438,0.000
1743562708.835,-32.715,-28.809,-9.277,-19.531,0.000
1743562708.839,-40.039,-36.133,-23.926,-39.062,0.000
1743562708.843,-39.551,-41.016,-33.691,-39.062,0.000
1743562708.847,-29.785,-37.598,-37.598,-35.156,0.000
1743562708.851,-24.902,-34.180,-33.203,-33.691,0.000
1743562708.855,-17.090,-30.762,-27.832,-20.020,0.000
1743562708.859,-16.113,-30.273,-26.855,-23.926,0.000
1743562708.862,-17.578,-44.434,-26.855,-36.133,0.000
1743562708.866,-15.625,-43.945,-24.414,-37.598,0.000
1743562708.870,-25.879,-37.109,-33.691,-25.879,0.000
1743562708.874,-43.945,-32.715,-35.645,-34.668,0.000
1743562708.878,-23.438,-24.414,-25.879,-19.531,0.000
1743562708.882,-16.602,-37.598,-32.715,-22.949,0.000
1743562708.886,-20.020,-42.480,-35.645,-17.578,0.000
1743562708.890,-19.531,-33.691,-25.879,-15.625,0.000
1743562708.894,-24.902,-36.621,-20.508,-23.926,0.000
1743562708.898,-30.762,-42.969,-35.645,-16.113,0.000
1743562708.902,-28.320,-37.598,-42.480,-26.855,0.000
1743562708.905,-23.438,-30.273,-29.297,-37.109,0.000
1743562708.909,-31.738,-31.738,-24.902,-49.805,0.000
1743562708.913,-28.809,-26.367,-29.297,-53.223,0.000
1743562708.917,-26.855,-23.926,-35.156,-28.809,0.000
1743562708.921,-28.809,-37.598,-43.457,-17.090,0.000
1743562708.925,-18.066,-45.410,-41.016,-33.691,0.000
1743562708.929,-28.320,-36.621,-37.109,-41.504,0.000
1743562708.933,-51.270,-37.109,-34.668,-36.133,0.000
1743562708.937,-58.105,-41.992,-26.367,-32.227,0.000
1743562708.941,-56.152,-41.504,-24.902,-32.227,0.000
1743562708.945,-38.574,-41.992,-27.832,-25.391,0.000
1743562708.948,-23.438,-32.715,-23.438,-17.578,0.000
1743562708.952,-25.391,-34.668,-26.855,-17.090,0.000
1743562708.956,-19.531,-29.785,-25.879,-26.855,0.000
1743562708.960,-14.648,-25.879,-26.855,-32.715,0.000
1743562708.964,-36.133,-40.527,-40.527,-43.945,0.000
1743562708.968,-42.969,-38.574,-40.527,-35.156,0.000
1743562708.972,-36.621,-30.762,-38.086,-17.578,0.000
1743562708.976,-48.340,-26.855,-37.109,-28.809,0.000
1743562708.980,-42.969,-27.344,-30.762,-30.762,0.000
1743562708.984,-36.621,-37.598,-37.598,-39.551,0.000
1743562708.988,-33.203,-43.945,-41.016,-45.410,0.000
1743562708.991,-30.762,-37.598,-32.227,-48.340,0.000
1743562708.995,-37.109,-26.855,-20.020,-38.086,0.000
1743562708.999,-48.828,-30.273,-16.113,-20.020,0.000
1743562709.003,-52.734,-38.086,-20.508,-26.367,0.000
1743562709.007,-45.898,-32.227,-29.785,-37.109,0.000
1743562709.011,-29.297,-22.949,-30.273,-30.762,0.000
1743562709.015,-28.320,-20.996,-20.020,-20.020,0.000
1743562709.019,-43.945,-24.902,-27.832,-25.391,0.000
1743562709.023,-41.504,-23.926,-30.273,-33.691,0.000
1743562709.027,-21.973,-31.250,-29.785,-54.688,0.000
1743562709.031,-23.438,-35.645,-38.086,-54.688,0.000
1743562709.034,-43.457,-34.668,-38.086,-39.062,0.000
1743562709.038,-43.457,-34.668,-35.156,-27.832,0.000
1743562709.042,-39.551,-26.367,-31.738,-17.578,0.000
1743562709.046,-37.109,-27.344,-35.156,-24.902,0.000
1743562709.050,-35.645,-28.809,-32.227,-30.273,0.000
1743562709.054,-30.273,-22.461,-18.066,-21.484,0.000
1743562709.058,-27.344,-26.855,-20.996,-30.762,0.000
1743562709.062,-30.762,-34.180,-31.738,-50.293,0.000
1743562709.065,-26.855,-33.691,-24.414,-45.898,0.000
1743562709.070,-25.879,-26.367,-24.414,-26.367,0.000
1743562709.074,-41.016,-25.879,-32.227,-28.809,0.000
1743562709.077,-37.598,-31.250,-27.832,-31.250,0.000
1743562709.081,-25.879,-37.598,-29.297,-28.320,0.000
1743562709.085,-37.598,-35.156,-39.062,-39.062,0.000
1743562709.089,-47.852,-28.320,-44.922,-32.227,0.000
1743562709.093,-33.691,-35.156,-43.945,-27.344,0.000
1743562709.097,-41.504,-41.992,-39.062,-49.316,0.000
1743562709.101,-51.758,-46.875,-30.762,-56.641,0.000
1743562709.105,-44.434,-36.621,-30.273,-48.340,0.000
1743562709.108,-47.852,-30.762,-37.598,-43.457,0.000
1743562709.112,-38.574,-27.344,-33.203,-36.133,0.000
1743562709.117,-31.250,-25.391,-34.668,-26.855,0.000
1743562709.120,-34.668,-30.273,-32.227,-36.133,0.000
1743562709.124,-28.320,-32.227,-29.297,-32.227,0.000
1743562709.128,-30.273,-38.086,-38.574,-32.227,0.000
1743562709.132,-37.598,-33.203,-40.039,-48.828,0.000
1743562709.136,-48.828,-26.367,-41.992,-48.340,0.000
1743562709.140,-42.969,-27.832,-44.434,-46.875,0.000
1743562709.144,-49.805,-36.621,-50.781,-59.082,0.000
1743562709.148,-46.875,-36.133,-42.480,-38.574,0.000
1743562709.151,-18.555,-25.391,-30.273,-29.297,0.000
1743562709.155,-20.020,-25.879,-31.250,-36.133,0.000
1743562709.159,-23.926,-33.203,-22.949,-47.852,0.000
1743562709.163,-20.020,-33.203,-24.414,-29.297,0.000
1743562709.167,-11.230,-26.367,-32.715,-18.066,0.000
1743562709.171,-12.207,-28.809,-35.645,-26.855,0.000
1743562709.175,-31.738,-37.109,-35.645,-21.484,0.000
1743562709.179,-42.480,-42.969,-35.156,-44.922,0.000
1743562709.183,-37.598,-37.598,-39.062,-46.387,0.000
1743562709.187,-20.508,-24.414,-34.668,-17.578,0.000
1743562709.191,-19.043,-21.973,-28.320,-20.996,0.000
1743562709.194,-32.715,-26.367,-26.855,-35.156,0.000
1743562709.198,-26.855,-30.273,-29.297,-24.902,0.000
1743562709.202,-18.066,-30.273,-25.879,-19.043,0.000
1743562709.206,-14.648,-30.762,-15.625,-36.133,0.000
1743562709.210,-20.020,-31.738,-17.578,-31.250,0.000
1743562709.214,-37.598,-27.344,-22.461,-18.555,0.000
1743562709.218,-41.504,-25.879,-36.621,-23.438,0.000
1743562709.222,-34.668,-31.250,-39.062,-26.855,0.000
1743562709.226,-37.598,-38.574,-25.391,-31.738,0.000
1743562709.230,-25.391,-30.273,-25.391,-36.621,0.000
1743562709.234,-9.766,-24.902,-32.715,-37.598,0.000
1743562709.237,-19.043,-24.902,-29.297,-20.508,0.000
1743562709.241,-20.020,-22.949,-23.926,-17.090,0.000
1743562709.245,-15.137,-20.508,-17.578,-19.043,0.000
1743562709.249,-15.625,-18.066,-7.324,-2.930,0.000
1743562709.253,-15.137,-23.438,-25.879,-1.953,0.000
1743562709.257,-16.113,-25.391,-30.273,-20.996,0.000
1743562709.261,-6.836,-17.578,-15.625,-31.738,0.000
1743562709.265,-8.301,-20.020,-11.230,-9.277,0.000
1743562709.269,-15.137,-35.156,-13.184,-2.930,0.000
1743562709.273,-13.672,-40.039,-19.531,-10.742,0.000
1743562709.277,-3.906,-32.227,-14.648,-1.953,0.000
1743562709.280,-15.625,-35.156,-17.578,-12.207,0.000
1743562709.284,-31.738,-36.133,-31.250,-29.785,0.000
1743562709.288,-23.438,-27.344,-28.320,-11.719,0.000
1743562709.292,-23.438,-29.297,-33.691,-2.930,0.000
1743562709.296,-28.809,-27.344,-41.016,-5.371,0.000
1743562709.300,-28.320,-24.414,-32.227,-16.602,0.000
1743562709.304,-21.484,-29.785,-24.902,-25.879,0.000
1743562709.308,-23.438,-37.598,-29.297,-24.414,0.000
1743562709.312,-31.250,-42.969,-22.949,-19.043,0.000
1743562709.316,-40.039,-41.504,-16.113,-14.160,0.000
1743562709.320,-42.969,-38.086,-26.855,-14.648,0.000
1743562709.323,-35.645,-35.156,-26.367,-15.137,0.000
1743562709.327,-32.227,-27.832,-27.344,-15.625,0.000
1743562709.331,-44.434,-26.367,-28.809,-35.156,0.000
1743562709.335,-42.969,-31.738,-26.367,-38.086,0.000
1743562709.339,-38.574,-36.621,-30.273,-27.832,0.000
1743562709.343,-35.645,-32.227,-35.645,-32.715,0.000
1743562709.347,-40.527,-29.297,-29.785,-26.855,0.000
1743562709.351,-43.945,-35.645,-20.508,-38.086,0.000
1743562709.355,-36.133,-33.691,-18.555,-36.133,0.000
1743562709.359,-31.738,-28.809,-21.973,-7.324,0.000
1743562709.363,-23.926,-26.855,-18.066,-0.488,0.000
1743562709.366,-1.953,-15.137,-11.230,-3.418,0.000
1743562709.370,-2.930,-21.484,-14.160,-12.695,0.000
1743562709.374,-27.832,-40.527,-30.762,-27.832,0.000
1743562709.378,-32.715,-35.645,-38.086,-35.645,0.000
1743562709.382,-28.320,-31.250,-33.203,-25.879,0.000
1743562709.386,-22.461,-29.785,-21.484,-29.297,0.000
1743562709.390,-20.020,-24.414,-19.531,-23.926,0.000
1743562709.394,-38.574,-33.691,-35.156,-20.020,0.000
1743562709.398,0.000,-35.156,-34.180,-24.414,0.000
1743562709.402,0.000,-29.297,-22.949,-29.297,0.000
1743562709.406,0.000,-32.715,-18.555,-31.250,0.000
1743562709.409,0.000,-36.621,-18.555,-25.391,0.000
1743562709.413,0.000,-31.738,-20.020,-26.855,0.000
1743562709.417,0.000,-30.762,-21.484,-26.367,0.000
1743562709.421,0.000,-34.180,-24.414,-34.668,0.000
1743562709.425,0.000,-28.809,-20.996,-39.062,0.000
1743562709.429,0.000,-21.973,-18.066,-33.691,0.000
1743562709.433,0.000,-26.367,-26.367,-30.273,0.000
1743562709.437,0.000,-27.832,-35.156,-30.273,0.000
1743562709.440,0.000,-27.832,-36.133,-23.438,0.000
1743562709.445,-29.297,-24.414,-30.273,-22.461,0.000
1743562709.449,-29.785,-19.043,-28.320,-33.691,0.000
1743562709.452,-29.297,-20.996,-32.227,-36.133,0.000
1743562709.456,-26.855,-30.273,-40.527,-41.016,0.000
1743562709.460,-25.879,-31.738,-44.434,-40.527,0.000
1743562709.464,-27.344,-25.391,-37.598,-35.156,0.000
1743562709.468,-36.621,-26.855,-38.574,-43.945,0.000
1743562709.472,-28.320,-30.273,-34.668,-37.598,0.000
1743562709.476,-35.156,-27.832,-32.227,-24.414,0.000
1743562709.480,-40.527,-26.367,-33.203,-36.133,0.000
1743562709.483,-40.527,-35.156,-33.691,-41.016,0.000
1743562709.487,-39.062,-36.133,-28.320,-35.645,0.000
1743562709.492,-34.668,-28.809,-33.203,-29.785,0.000
1743562709.495,-32.227,-26.367,-42.480,-32.227,0.000
1743562709.499,-24.414,-22.949,-36.621,-33.691,0.000
1743562709.503,-34.180,-30.762,-34.180,-37.109,0.000
1743562709.507,-36.133,-37.109,-40.527,-41.504,0.000
1743562709.511,-26.367,-28.320,-36.621,-37.598,0.000
1743562709.515,-23.926,-25.391,-33.691,-32.227,0.000
1743562709.519,-37.109,-40.039,-42.480,-41.016,0.000
1743562709.523,-49.316,-40.039,-36.133,-30.762,0.000
1743562709.526,-26.367,-38.574,-28.320,-42.969,0.000
1743562709.530,-24.414,-35.645,-27.832,-44.434,0.000
1743562709.534,-43.457,-34.180,-27.832,-37.109,0.000
1743562709.538,-32.715,-39.062,-27.832,-33.203,0.000
1743562709.542,-23.926,-33.203,-29.785,-29.297,0.000
1743562709.546,-27.832,-27.832,-31.738,-26.855,0.000
1743562709.550,-27.344,-29.785,-32.227,-20.508,0.000
1743562709.554,-28.320,-30.762,-28.809,-35.645,0.000
1743562709.558,-20.996,-30.273,-24.902,-41.016,0.000
1743562709.562,-19.531,-34.180,-29.297,-39.551,0.000
1743562709.566,-22.949,-34.180,-33.203,-40.039,0.000
1743562709.569,-23.926,-24.902,-26.367,-22.461,0.000
1743562709.573,-26.855,-21.973,-23.438,-12.207,0.000
1743562709.577,-31.738,-21.484,-27.344,-18.555,0.000
1743562709.581,-30.273,-20.996,-27.832,-21.484,0.000
1743562709.585,-34.668,-25.391,-28.809,-37.598,0.000
1743562709.589,-34.668,-30.762,-31.738,-41.504,0.000
1743562709.593,-30.273,-33.203,-31.738,-33.203,0.000
1743562709.597,-33.691,-32.227,-36.133,-26.855,0.000
1743562709.601,-27.344,-36.133,-36.621,-21.973,0.000
1743562709.605,-30.762,-32.227,-30.762,-26.367,0.000
1743562709.609,-38.574,-27.832,-31.738,-31.250,0.000
1743562709.612,-40.527,-24.414,-28.320,-29.297,0.000
1743562709.616,-37.598,-18.555,-25.391,-20.996,0.000
1743562709.620,-29.785,-21.484,-23.438,-31.738,0.000
1743562709.624,-29.785,-26.855,-25.879,-38.574,0.000
1743562709.628,-41.016,-28.320,-36.621,-39.062,0.000
1743562709.632,-29.297,-25.879,-30.273,-34.668,0.000
1743562709.636,-21.973,-27.832,-26.855,-40.527,0.000
