timestamps,TP9,AF7,AF8,TP10,Right AUX
1743045417.803,-25.879,-31.738,-17.578,-19.531,0.000
1743045417.807,-26.855,-25.391,-22.949,-28.809,0.000
1743045417.811,-19.531,-14.648,-17.090,-34.180,0.000
1743045417.815,-17.578,-11.719,-19.043,-23.926,0.000
1743045417.819,-26.367,-24.902,-20.996,-17.090,0.000
1743045417.823,-35.156,-34.180,-29.785,-30.273,0.000
1743045417.827,-32.715,-29.297,-37.109,-32.715,0.000
1743045417.831,-28.320,-29.785,-25.391,-29.297,0.000
1743045417.835,-35.645,-34.180,-22.949,-35.156,0.000
1743045417.839,-32.715,-33.203,-22.461,-24.414,0.000
1743045417.843,-38.086,-28.320,-22.461,-25.391,0.000
1743045417.846,-32.715,-28.320,-30.762,-21.973,0.000
1743045417.850,-30.762,-28.320,-28.320,-12.695,0.000
1743045417.854,-35.645,-24.902,-20.996,-17.578,0.000
1743045417.858,-27.344,-31.738,-11.230,-18.555,0.000
1743045417.862,-25.879,-31.738,-18.066,-21.484,0.000
1743045417.866,-22.461,-26.367,-24.902,-23.438,0.000
1743045417.870,-25.879,-31.250,-18.066,-18.555,0.000
1743045417.874,-35.156,-36.621,-31.250,-14.160,0.000
1743045417.878,-37.598,-36.133,-40.039,-18.066,0.000
1743045417.882,-41.992,-32.715,-36.133,-23.926,0.000
1743045417.885,-44.434,-30.273,-55.176,-33.691,0.000
1743045417.889,-26.855,-22.461,-79.590,-18.555,0.000
1743045417.893,-18.555,-20.996,-73.730,-8.789,0.000
1743045417.897,-20.508,-24.414,-59.570,-20.508,0.000
1743045417.901,-35.645,-30.273,-57.129,-27.344,0.000
1743045417.905,-47.363,-33.203,-50.293,-33.691,0.000
1743045417.909,-46.387,-29.297,-43.945,-29.297,0.000
1743045417.913,-44.922,-32.227,-37.598,-20.020,0.000
1743045417.917,-45.898,-36.621,-29.785,-21.973,0.000
1743045417.921,-58.105,-39.062,-36.133,-32.715,0.000
1743045417.925,-57.617,-34.180,-40.527,-36.133,0.000
1743045417.928,-40.527,-30.762,-30.762,-41.016,0.000
1743045417.932,-43.457,-32.715,-24.414,-46.387,0.000
1743045417.936,-44.434,-29.785,-17.090,-39.551,0.000
1743045417.940,-32.715,-34.668,-18.555,-34.668,0.000
1743045417.944,-18.555,-35.645,-25.391,-22.949,0.000
1743045417.948,-20.020,-32.715,-27.832,-11.230,0.000
1743045417.952,-37.109,-36.621,-23.438,-22.461,0.000
1743045417.956,-40.527,-41.016,-17.578,-29.297,0.000
1743045417.960,-47.852,-37.109,-19.043,-28.809,0.000
1743045417.964,-41.016,-36.133,-17.090,-27.344,0.000
1743045417.968,-25.879,-40.527,-12.695,-23.926,0.000
1743045417.971,-41.992,-42.969,-21.973,-22.461,0.000
1743045417.975,-40.039,-33.691,-23.438,-21.484,0.000
1743045417.979,-20.996,-28.320,-15.137,-28.809,0.000
1743045417.983,-14.160,-32.715,-14.648,-29.785,0.000
1743045417.987,-16.602,-31.738,-10.742,-20.508,0.000
1743045417.991,-24.902,-24.414,0.000,-15.625,0.000
1743045417.995,-26.367,-25.391,0.000,-25.879,0.000
1743045417.999,-27.832,-36.133,0.000,-30.273,0.000
1743045418.003,-21.973,-40.039,0.000,-25.879,0.000
1743045418.007,-40.039,-33.691,0.000,-31.250,0.000
1743045418.010,-48.828,-29.297,0.000,-27.344,0.000
1743045418.014,-36.621,-38.574,0.000,-18.066,0.000
1743045418.018,-43.945,-41.016,0.000,-17.090,0.000
1743045418.022,-44.922,-30.273,0.000,-20.020,0.000
1743045418.026,-30.273,-18.066,0.000,-31.250,0.000
1743045418.030,-25.391,-14.648,0.000,-31.250,0.000
1743045418.034,-25.391,-17.578,0.000,-21.484,0.000
1743045418.038,-31.250,-20.020,-20.508,-25.879,0.000
1743045418.042,-33.691,-25.391,-14.160,-23.926,0.000
1743045418.046,-29.297,-35.156,-13.184,-22.949,0.000
1743045418.050,-33.203,-32.715,-2.930,-27.832,0.000
1743045418.053,-12.695,-23.438,-0.977,-25.879,0.000
1743045418.057,-9.766,-21.973,-8.301,-25.879,0.000
1743045418.061,-21.484,-23.438,-11.719,-27.344,0.000
1743045418.065,-19.531,-28.809,-23.438,-31.738,0.000
1743045418.069,-38.574,-41.504,-32.227,-33.203,0.000
1743045418.073,-48.340,-44.434,-29.297,-38.574,0.000
1743045418.077,-39.062,-44.434,-31.738,-43.457,0.000
1743045418.081,-23.438,-43.457,-27.832,-35.156,0.000
1743045418.085,-28.320,-34.180,-17.578,-31.738,0.000
1743045418.089,-41.992,-26.855,-21.484,-25.879,0.000
1743045418.093,-43.457,-28.809,-26.367,-10.742,0.000
1743045418.096,-24.902,-23.926,-23.926,-8.301,0.000
1743045418.100,-18.555,-11.719,-19.043,-13.672,0.000
1743045418.104,-15.625,-14.648,-10.254,-16.113,0.000
1743045418.108,-19.043,-32.227,-12.207,-25.879,0.000
1743045418.112,-23.926,-26.367,-17.090,-22.949,0.000
1743045418.116,-25.391,-20.996,-26.855,-23.438,0.000
1743045418.120,-27.832,-26.855,-37.109,-25.879,0.000
1743045418.124,-29.297,-37.109,-32.227,-15.137,0.000
1743045418.128,-34.180,-39.062,-30.273,-18.555,0.000
1743045418.132,-28.320,-29.297,-37.598,-34.180,0.000
1743045418.135,-27.344,-23.926,-35.645,-26.367,0.000
1743045418.139,-42.480,-30.273,-36.621,-28.809,0.000
1743045418.143,-32.227,-34.668,-31.250,-31.250,0.000
1743045418.147,-29.785,-29.785,-23.438,-24.414,0.000
1743045418.151,-52.734,-40.039,-32.715,-35.645,0.000
1743045418.155,-53.223,-48.340,-45.410,-42.969,0.000
1743045418.159,-38.574,-39.062,-45.898,-41.992,0.000
1743045418.163,-37.598,-36.621,-39.551,-42.480,0.000
1743045418.167,-34.180,-34.180,-45.410,-33.203,0.000
1743045418.171,-15.137,-21.973,-59.082,-25.391,0.000
1743045418.175,-21.484,-25.391,-87.402,-21.973,0.000
1743045418.178,-33.691,-26.855,0.000,-17.090,0.000
1743045418.182,-29.785,-25.879,0.000,-20.996,0.000
1743045418.186,-33.203,-28.320,0.000,-32.715,0.000
1743045418.190,-30.273,-28.809,0.000,-35.156,0.000
1743045418.194,-30.273,-26.367,0.000,-32.227,0.000
1743045418.198,-36.133,-25.391,0.000,-32.715,0.000
1743045418.202,-29.297,-34.668,0.000,-28.809,0.000
1743045418.206,-26.367,-28.809,0.000,-24.902,0.000
1743045418.210,-33.203,-24.902,0.000,-27.344,0.000
1743045418.214,-29.785,-32.715,0.000,-17.090,0.000
1743045418.217,-23.926,-30.762,0.000,-10.254,0.000
1743045418.221,-17.090,-19.043,0.000,-15.625,0.000
1743045418.225,-17.578,-16.113,-148.438,-22.949,0.000
1743045418.229,-26.367,-23.926,-115.234,-20.996,0.000
1743045418.233,-28.809,-26.855,-88.867,-14.648,0.000
1743045418.237,-35.645,-30.273,-50.293,-20.508,0.000
1743045418.241,-38.086,-29.297,-28.320,-24.414,0.000
1743045418.245,-34.668,-25.879,-24.902,-16.602,0.000
1743045418.249,-28.320,-32.227,-19.531,-13.672,0.000
1743045418.253,-19.531,-31.738,-13.672,-18.066,0.000
1743045418.257,-27.344,-22.461,-15.625,-16.602,0.000
1743045418.260,-25.879,-18.555,-17.090,-21.973,0.000
1743045418.264,-16.602,-25.391,-9.277,-32.227,0.000
1743045418.268,-27.344,-28.320,-8.789,-34.180,0.000
1743045418.272,-32.715,-25.391,0.000,-31.738,0.000
1743045418.276,-40.039,-35.156,0.000,-37.598,0.000
1743045418.280,-44.434,-33.203,0.000,-34.668,0.000
1743045418.284,-42.480,-27.344,0.000,-41.992,0.000
1743045418.288,-45.410,-33.691,0.000,-45.898,0.000
1743045418.292,-44.434,-26.855,0.000,-35.645,0.000
1743045418.296,-42.480,-26.367,0.000,-35.156,0.000
1743045418.300,-41.504,-33.203,0.000,-39.062,0.000
1743045418.303,-36.621,-36.133,0.000,-32.715,0.000
1743045418.307,-24.414,-36.133,0.000,-20.996,0.000
1743045418.311,-27.344,-28.320,0.000,-20.996,0.000
1743045418.315,-38.086,-31.250,0.000,-26.367,0.000
1743045418.319,-29.785,-37.598,8.301,-14.648,0.000
1743045418.323,-29.297,-35.645,3.906,-11.230,0.000
1743045418.327,-41.016,-32.227,-5.371,-33.203,0.000
1743045418.331,-43.945,-33.691,4.395,-38.086,0.000
1743045418.335,-43.945,-38.574,9.766,-31.250,0.000
1743045418.339,-40.527,-36.133,5.859,-35.645,0.000
1743045418.343,-33.691,-38.086,12.695,-33.203,0.000
1743045418.346,-27.344,-41.992,16.602,-29.297,0.000
1743045418.350,-20.996,-40.527,7.324,-31.738,0.000
1743045418.354,-20.020,-46.387,12.695,-33.691,0.000
1743045418.358,-20.020,-45.410,20.508,-34.180,0.000
1743045418.362,-17.578,-34.668,13.672,-37.109,0.000
1743045418.366,0.000,-34.180,10.742,-33.691,0.000
1743045418.370,0.000,-32.715,11.719,-26.367,0.000
1743045418.374,0.000,-27.344,15.625,-20.508,0.000
1743045418.378,0.000,-20.508,10.742,-11.719,0.000
1743045418.382,0.000,-20.508,-0.488,-7.812,0.000
1743045418.385,0.000,-24.414,3.418,-24.414,0.000
1743045418.389,0.000,-22.949,1.953,-44.434,0.000
1743045418.393,0.000,-18.066,-3.906,-47.363,0.000
1743045418.397,0.000,-15.137,-0.977,-40.527,0.000
1743045418.401,0.000,-10.742,-14.648,-33.691,0.000
1743045418.405,0.000,-21.484,-29.297,-41.992,0.000
1743045418.409,0.000,-38.574,-8.789,-50.781,0.000
1743045418.413,-27.832,-27.344,4.883,-44.922,0.000
1743045418.417,-36.621,-27.344,-2.930,-58.594,0.000
1743045418.421,-34.180,-41.992,-4.883,-76.660,0.000
1743045418.424,-28.320,-39.062,-1.465,-65.430,0.000
1743045418.428,-15.625,-29.785,0.000,-51.270,0.000
1743045418.432,-27.344,-23.438,4.395,-45.410,0.000
1743045418.436,-48.828,-23.438,-2.441,-36.133,0.000
1743045418.440,-41.504,-27.832,-15.137,-31.250,0.000
1743045418.444,-31.250,-20.996,-13.184,-20.508,0.000
1743045418.448,-38.574,-14.160,-8.789,-14.160,0.000
1743045418.452,-49.805,-18.555,-12.207,-18.066,0.000
1743045418.456,-54.199,-19.043,-6.348,-21.973,0.000
1743045418.460,-18.066,-17.578,-0.488,-22.949,0.000
1743045418.464,-24.414,-23.926,1.465,-31.738,0.000
1743045418.467,-20.020,-26.367,11.230,-27.832,0.000
1743045418.471,-23.438,-31.250,8.301,-20.996,0.000
1743045418.475,-38.086,-38.086,-13.672,-30.273,0.000
1743045418.479,-42.969,-33.203,-24.414,-29.785,0.000
1743045418.483,-43.457,-30.273,-15.137,-27.344,0.000
1743045418.487,-38.086,-34.180,-2.441,-26.855,0.000
1743045418.491,-33.691,-38.086,-8.789,-20.996,0.000
1743045418.495,-28.809,-39.062,-11.719,-19.531,0.000
1743045418.499,-38.574,-41.016,-6.348,-20.996,0.000
1743045418.503,-40.039,-40.039,-4.395,-22.461,0.000
1743045418.507,-24.902,-27.832,-7.812,-23.438,0.000
1743045418.510,-14.648,-25.391,-11.230,-14.648,0.000
1743045418.514,-16.113,-24.902,-12.207,-10.254,0.000
1743045418.518,-19.531,-22.949,-4.395,-13.672,0.000
1743045418.522,-21.973,-20.996,3.906,-12.695,0.000
1743045418.526,-22.461,-16.113,0.488,-10.742,0.000
1743045418.530,-25.391,-20.996,-18.555,-17.578,0.000
1743045418.534,-26.367,-29.297,-32.227,-22.461,0.000
1743045418.538,-32.715,-21.973,-21.973,-25.391,0.000
1743045418.542,-45.410,-27.344,-14.160,-32.715,0.000
1743045418.546,-47.363,-37.109,-17.090,-35.156,0.000
1743045418.550,-47.852,-36.621,-19.531,-35.156,0.000
1743045418.553,0.000,-38.574,-11.719,-44.434,0.000
1743045418.557,0.000,-37.598,-19.043,-55.664,0.000
1743045418.561,0.000,-33.691,-22.461,-46.875,0.000
1743045418.565,0.000,-30.273,-14.648,-24.902,0.000
1743045418.569,0.000,-24.902,-18.555,-13.672,0.000
1743045418.573,0.000,-17.578,-13.672,-10.742,0.000
1743045418.577,0.000,-20.508,-8.301,-2.441,0.000
1743045418.581,0.000,-30.273,-12.207,-6.836,0.000
1743045418.585,0.000,-37.109,-16.602,-22.949,0.000
1743045418.589,0.000,-34.180,-22.949,-38.574,0.000
1743045418.592,0.000,-33.203,-23.438,-40.527,0.000
1743045418.596,0.000,-35.645,-21.973,-39.551,0.000
1743045418.600,-45.410,-32.715,-22.949,-38.574,0.000
1743045418.604,-47.363,-27.344,-23.926,-25.391,0.000
1743045418.608,-37.109,-30.762,-22.461,-22.949,0.000
1743045418.612,-26.855,-41.992,-24.414,-22.949,0.000
1743045418.616,-22.949,-41.504,-29.785,-15.625,0.000
1743045418.620,-19.531,-29.297,-25.879,-10.742,0.000
1743045418.624,-18.066,-27.344,-14.160,-6.348,0.000
1743045418.628,-20.020,-30.273,-11.719,-4.395,0.000
1743045418.631,-31.250,-34.180,-24.414,-16.113,0.000
1743045418.635,-42.480,-31.738,-26.367,-31.738,0.000
1743045418.639,-38.086,-26.367,-27.832,-29.785,0.000
1743045418.643,-24.414,-26.855,-31.738,-21.484,0.000
1743045418.647,-38.086,-29.785,0.000,-25.391,0.000
1743045418.651,-26.367,-25.879,0.000,-28.320,0.000
1743045418.655,-29.297,-30.762,0.000,-30.762,0.000
1743045418.659,-34.668,-30.273,0.000,-31.738,0.000
1743045418.663,-28.809,-26.855,0.000,-23.438,0.000
1743045418.667,-26.367,-23.438,0.000,-9.277,0.000
1743045418.671,-15.137,-11.719,0.000,-6.836,0.000
1743045418.674,-6.348,-7.812,0.000,-18.066,0.000
1743045418.678,-28.320,-15.625,0.000,-26.855,0.000
1743045418.682,-47.852,-32.227,0.000,-23.438,0.000
1743045418.686,-44.922,-36.621,0.000,-25.391,0.000
1743045418.690,-36.133,-29.785,0.000,-26.855,0.000
1743045418.694,-27.344,-26.367,-16.113,-21.484,0.000
1743045418.698,-26.855,-33.691,-27.344,-24.902,0.000
1743045418.702,-24.414,-33.203,-35.156,-24.902,0.000
1743045418.706,-21.973,-20.020,-18.066,-19.043,0.000
1743045418.710,-25.391,-21.484,-20.508,-19.043,0.000
1743045418.714,-36.133,-33.203,-31.250,-31.250,0.000
1743045418.717,-41.992,-35.645,-32.227,-34.180,0.000
1743045418.721,-31.738,-28.809,-35.156,-28.809,0.000
1743045418.725,-24.414,-20.508,-31.250,-21.484,0.000
1743045418.729,-27.832,-28.809,-33.691,-29.785,0.000
1743045418.733,-29.785,-30.273,-34.668,-42.969,0.000
1743045418.737,-26.855,-18.066,-27.344,-36.621,0.000
1743045418.741,-17.578,-20.508,0.000,-25.879,0.000
1743045418.745,-22.949,-30.273,0.000,-25.391,0.000
1743045418.749,-28.809,-35.645,0.000,-25.879,0.000
1743045418.753,-33.203,-31.738,0.000,-21.973,0.000
1743045418.757,-30.762,-24.902,0.000,-22.461,0.000
1743045418.760,-29.297,-23.926,0.000,-24.902,0.000
1743045418.764,-26.367,-32.715,0.000,-21.973,0.000
1743045418.768,-13.184,-31.250,0.000,-20.996,0.000
1743045418.772,-16.602,-20.996,0.000,-22.461,0.000
1743045418.776,-11.719,-25.879,0.000,-15.625,0.000
1743045418.780,-20.020,-37.598,0.000,-26.367,0.000
1743045418.784,-34.180,-43.945,0.000,-36.133,0.000
1743045418.788,-25.879,-50.781,-14.160,-26.855,0.000
1743045418.792,-26.367,-49.316,-19.531,-28.809,0.000
1743045418.796,-31.738,-35.645,-20.996,-39.062,0.000
1743045418.799,-30.762,-31.738,-27.344,-37.598,0.000
1743045418.803,-29.785,-25.391,-33.203,-27.344,0.000
1743045418.807,-33.691,-23.438,-23.926,-23.926,0.000
1743045418.811,-31.250,-29.785,-17.090,-22.461,0.000
1743045418.815,-22.949,-29.297,-20.996,-25.879,0.000
1743045418.819,-24.414,-26.855,-31.738,-31.250,0.000
1743045418.823,-35.156,-29.785,-24.414,-34.668,0.000
1743045418.827,-35.156,-33.691,-6.836,-23.926,0.000
1743045418.831,-38.574,-36.133,-12.695,-24.902,0.000
1743045418.835,-40.527,-33.203,-20.996,-28.320,0.000
1743045418.839,-35.156,-27.832,-17.578,-20.020,0.000
1743045418.842,-41.016,-26.855,-16.602,-22.461,0.000
1743045418.846,-39.551,-26.855,-23.438,-21.973,0.000
1743045418.850,-29.297,-26.367,-29.297,-16.602,0.000
1743045418.854,-34.180,-40.039,-24.902,-28.809,0.000
1743045418.858,-33.203,-44.434,-17.090,-35.645,0.000
1743045418.862,-29.785,-29.297,-19.043,-30.762,0.000
1743045418.866,-38.574,-27.832,-24.902,-30.762,0.000
1743045418.870,-38.574,-26.367,-27.832,-22.949,0.000
1743045418.874,-36.133,-24.902,-32.715,-22.461,0.000
1743045418.878,-33.691,-29.297,-23.438,-28.320,0.000
1743045418.882,-31.738,-31.250,0.000,-33.203,0.000
1743045418.885,-32.227,-32.715,0.000,-30.273,0.000
1743045418.889,-32.715,-27.344,0.000,-29.785,0.000
1743045418.893,-39.062,-24.414,0.000,-31.250,0.000
1743045418.897,-42.969,-31.250,0.000,-28.809,0.000
1743045418.901,-34.668,-35.645,0.000,-31.250,0.000
1743045418.905,-35.645,-36.621,0.000,-35.156,0.000
1743045418.909,-27.832,-32.227,0.000,-30.762,0.000
1743045418.913,-23.438,-29.785,0.000,-28.809,0.000
1743045418.917,-27.344,-35.645,0.000,-36.621,0.000
1743045418.921,-20.020,-37.598,0.000,-37.109,0.000
1743045418.924,-16.602,-35.645,0.000,-30.273,0.000
1743045418.928,-17.090,-29.297,-29.297,-18.555,0.000
1743045418.932,-19.531,-25.879,-31.738,-13.184,0.000
1743045418.936,-30.762,-32.715,-34.668,-18.066,0.000
1743045418.940,-35.156,-37.109,-30.762,-19.531,0.000
1743045418.944,-37.109,-39.062,-25.391,-25.879,0.000
1743045418.948,-33.691,-27.344,-23.926,-24.902,0.000
1743045418.952,-22.949,-13.672,-28.809,-20.996,0.000
1743045418.956,-24.414,-22.949,-30.273,-19.531,0.000
1743045418.960,-26.367,-29.297,-18.555,-15.137,0.000
1743045418.964,-20.996,-28.320,-18.555,-18.555,0.000
1743045418.967,-21.973,-35.645,-23.926,-18.066,0.000
1743045418.971,-28.809,-44.434,-24.902,-22.461,0.000
1743045418.975,-41.992,-40.527,0.000,-27.832,0.000
1743045418.979,-36.133,-32.227,0.000,-19.043,0.000
1743045418.983,-39.062,-37.109,0.000,-26.855,0.000
1743045418.987,-54.199,-39.551,0.000,-38.574,0.000
1743045418.991,-43.945,-25.391,0.000,-27.832,0.000
1743045418.995,-30.762,-13.672,0.000,-31.738,0.000
1743045418.999,-32.227,-19.043,0.000,-47.852,0.000
1743045419.003,-41.504,-31.250,0.000,-48.828,0.000
1743045419.007,-42.480,-38.574,0.000,-43.457,0.000
1743045419.010,-26.855,-34.180,0.000,-39.062,0.000
1743045419.014,-27.344,-37.109,0.000,-39.062,0.000
1743045419.018,-37.109,-36.621,0.000,-34.668,0.000
1743045419.022,-31.250,-25.879,-23.926,-29.297,0.000
1743045419.026,-30.273,-23.438,-22.949,-23.926,0.000
1743045419.030,-40.039,-22.461,-26.367,-17.578,0.000
1743045419.034,-33.203,-24.414,-31.250,-18.555,0.000
1743045419.038,-22.949,-35.645,-25.879,-26.855,0.000
1743045419.042,-21.484,-28.320,-16.602,-20.020,0.000
1743045419.046,-20.020,-13.184,-21.973,-13.184,0.000
1743045419.050,-24.902,-20.020,-27.344,-16.113,0.000
1743045419.053,-31.738,-31.250,-19.043,-18.066,0.000
1743045419.057,-29.297,-27.832,-20.996,-23.438,0.000
1743045419.061,-14.648,-26.367,-33.691,-29.785,0.000
1743045419.065,-19.531,-32.227,-31.250,-28.809,0.000
1743045419.069,-33.203,-37.109,-22.461,-30.762,0.000
1743045419.073,-32.227,-38.086,-8.301,-25.879,0.000
1743045419.077,-34.668,-37.109,-4.883,-21.484,0.000
1743045419.081,-35.645,-41.016,-16.602,-19.531,0.000
1743045419.085,-31.250,-44.434,-19.043,-13.672,0.000
1743045419.089,-34.180,-47.363,-25.879,-13.672,0.000
1743045419.092,-31.250,-44.922,-30.273,-14.648,0.000
1743045419.096,-29.785,-41.992,-33.691,-22.949,0.000
1743045419.100,-23.438,-41.504,-37.109,-21.973,0.000
1743045419.104,-20.020,-31.738,-25.391,-10.742,0.000
1743045419.108,-18.555,-14.160,-20.508,0.977,0.000
1743045419.112,-19.531,-15.137,-24.414,-3.418,0.000
1743045419.116,-15.625,-18.066,-25.391,-3.418,0.000
1743045419.120,-16.113,-17.578,-20.020,-3.418,0.000
1743045419.124,-29.297,-31.738,-18.066,-11.230,0.000
1743045419.128,-31.738,-39.551,-17.090,-7.812,0.000
1743045419.132,-37.598,-40.039,-12.695,-8.301,0.000
1743045419.135,-41.016,-38.086,-12.695,-15.137,0.000
1743045419.139,-25.391,-33.691,-13.184,-10.254,0.000
1743045419.143,-23.438,-32.227,-13.184,-3.906,0.000
1743045419.147,-31.738,-31.250,-14.648,-7.812,0.000
1743045419.151,-27.832,-27.832,-19.531,-9.766,0.000
1743045419.155,-13.184,-20.020,-27.832,-1.465,0.000
1743045419.159,-20.508,-22.461,-37.598,-11.230,0.000
1743045419.163,-21.484,-20.508,-27.832,-14.160,0.000
1743045419.167,-10.742,-26.855,-18.066,-18.555,0.000
1743045419.171,-18.555,-36.133,-20.020,-26.367,0.000
1743045419.175,-21.484,-32.227,-21.973,-20.996,0.000
1743045419.178,-22.461,-29.297,-21.484,-14.648,0.000
1743045419.182,-19.531,-28.320,-15.137,-6.836,0.000
1743045419.186,-19.043,-28.809,-11.230,-5.859,0.000
1743045419.190,-23.926,-31.738,-21.484,-9.766,0.000
1743045419.194,-22.461,-28.320,-22.461,-13.672,0.000
1743045419.198,-29.785,-20.996,-24.414,-12.695,0.000
1743045419.202,-28.809,-18.555,-30.762,-11.230,0.000
1743045419.206,-23.926,-20.996,-22.949,-9.766,0.000
1743045419.210,0.000,-25.391,-15.625,-15.137,0.000
1743045419.214,0.000,-32.227,-23.438,-18.555,0.000
1743045419.218,0.000,-37.598,-27.344,-19.043,0.000
1743045419.221,0.000,-33.691,-28.809,-18.555,0.000
1743045419.225,0.000,-26.855,-25.879,-21.973,0.000
1743045419.229,0.000,-32.227,-40.527,-23.926,0.000
1743045419.233,0.000,-36.621,-68.359,-20.508,0.000
1743045419.237,0.000,-24.414,-55.664,-19.531,0.000
1743045419.241,0.000,-30.762,-41.504,-26.367,0.000
1743045419.245,0.000,-42.969,-46.875,-31.250,0.000
1743045419.249,0.000,-31.250,-44.922,-18.066,0.000
1743045419.253,0.000,-16.602,-46.875,-12.695,0.000
1743045419.257,-21.973,-23.926,-50.781,-26.855,0.000
1743045419.260,-20.996,-23.438,-38.574,-29.297,0.000
1743045419.264,-17.578,-22.949,-39.062,-29.785,0.000
1743045419.268,-15.137,-22.949,-49.316,-24.414,0.000
1743045419.272,-25.391,-23.926,-37.109,-22.461,0.000
1743045419.276,-36.133,-27.832,-32.227,-33.691,0.000
1743045419.280,-21.484,-20.020,-35.645,-18.555,0.000
1743045419.284,-20.020,-30.273,-21.973,-14.160,0.000
1743045419.288,-31.738,-40.039,-21.484,-21.484,0.000
1743045419.292,-21.484,-34.180,-25.879,-13.184,0.000
1743045419.296,-20.020,-35.156,-9.766,-9.766,0.000
1743045419.300,-34.668,-43.457,6.836,-15.137,0.000
1743045419.303,0.000,-39.551,7.812,-17.090,0.000
1743045419.307,0.000,-43.457,-1.953,-21.484,0.000
1743045419.311,0.000,-37.598,-7.324,-20.508,0.000
1743045419.315,0.000,-19.043,-12.695,-12.207,0.000
1743045419.319,0.000,-20.508,-16.602,-21.973,0.000
1743045419.323,0.000,-28.809,-17.090,-26.367,0.000
1743045419.327,0.000,-36.621,-11.230,-17.578,0.000
1743045419.331,0.000,-44.434,-13.672,-13.672,0.000
1743045419.335,0.000,-47.363,-20.996,-13.672,0.000
1743045419.339,0.000,-37.109,-24.902,-14.648,0.000
1743045419.343,0.000,-36.621,-21.484,-20.020,0.000
1743045419.346,0.000,-44.434,-13.184,-32.227,0.000
1743045419.350,-51.270,-41.016,-14.648,-30.762,0.000
1743045419.354,-39.551,-37.598,-19.531,-23.438,0.000
1743045419.358,-37.109,-31.738,-13.672,-23.438,0.000
1743045419.362,-21.484,-30.273,-13.672,-23.926,0.000
1743045419.366,-13.672,-35.156,-14.648,-22.949,0.000
1743045419.370,-27.832,-38.086,-15.625,-23.438,0.000
1743045419.374,-23.438,-33.203,-17.090,-26.855,0.000
1743045419.378,-19.531,-29.785,-16.113,-23.926,0.000
1743045419.382,-28.320,-27.344,-20.020,-17.578,0.000
1743045419.385,-28.320,-28.809,-35.645,-9.766,0.000
1743045419.389,-34.668,-36.621,-32.715,-15.625,0.000
1743045419.393,-42.480,-44.922,-11.719,-26.367,0.000
1743045419.397,-39.062,-40.527,0.000,-24.414,0.000
1743045419.401,-33.203,-32.715,0.000,-18.066,0.000
1743045419.405,-33.203,-34.668,0.000,-19.531,0.000
1743045419.409,-28.809,-32.227,0.000,-18.555,0.000
1743045419.413,-23.926,-23.926,0.000,-8.789,0.000
1743045419.417,-38.574,-20.020,0.000,-4.883,0.000
1743045419.421,-37.598,-11.719,0.000,-10.254,0.000
1743045419.425,-32.715,-17.578,0.000,-14.160,0.000
1743045419.428,-41.992,-32.715,0.000,-5.371,0.000
1743045419.432,-43.945,-32.715,0.000,-11.719,0.000
1743045419.436,-42.969,-27.344,0.000,-21.973,0.000
1743045419.440,-49.316,-32.715,0.000,-31.738,0.000
1743045419.444,-49.316,-39.062,-11.230,-39.062,0.000
1743045419.448,-43.945,-37.598,-13.672,-34.180,0.000
1743045419.452,-39.551,-34.668,-11.230,-25.391,0.000
1743045419.456,-36.621,-27.832,-8.789,-20.020,0.000
1743045419.460,-30.762,-32.227,-23.438,-18.555,0.000
1743045419.464,-22.949,-36.621,-33.691,-14.648,0.000
1743045419.467,-20.020,-27.832,-21.973,-9.277,0.000
1743045419.471,-23.438,-24.902,-24.414,-6.836,0.000
1743045419.475,-20.508,-28.809,-36.133,-11.719,0.000
1743045419.479,-17.578,-22.461,-42.969,-14.160,0.000
1743045419.483,-20.020,-16.602,-26.855,-12.207,0.000
1743045419.487,-22.949,-21.973,-13.672,-11.719,0.000
1743045419.491,-27.344,-33.691,-17.090,-18.555,0.000
1743045419.495,-13.672,-31.738,-29.785,-22.461,0.000
1743045419.499,-5.859,-28.320,-39.062,-20.020,0.000
1743045419.503,-13.672,-30.762,-36.621,-24.902,0.000
1743045419.506,-15.137,-22.461,-45.898,-20.020,0.000
1743045419.510,-18.555,-18.066,-56.152,-15.137,0.000
1743045419.514,-25.879,-29.785,-42.969,-16.113,0.000
1743045419.518,-32.227,-35.156,-31.738,-15.137,0.000
1743045419.522,-44.922,-31.738,-36.621,-19.531,0.000
1743045419.526,-44.434,-23.926,-42.480,-26.367,0.000
1743045419.530,-31.738,-19.531,-51.758,-23.926,0.000
1743045419.534,-33.691,-28.809,-55.176,-16.602,0.000
1743045419.538,-38.574,-35.156,-22.949,-23.438,0.000
1743045419.542,-34.668,-28.809,-22.461,-22.949,0.000
1743045419.546,-29.785,-25.391,-27.832,-13.184,0.000
1743045419.549,-26.367,-26.855,-18.555,-12.207,0.000
1743045419.553,-23.926,-20.996,-10.254,-19.531,0.000
1743045419.557,-25.879,-13.672,-23.438,-16.113,0.000
1743045419.561,-27.344,-14.648,-20.508,-9.277,0.000
1743045419.565,-28.320,-29.785,-13.672,-20.508,0.000
1743045419.569,-40.527,-52.734,-12.207,-32.227,0.000
1743045419.573,-36.621,-52.246,-6.348,-26.855,0.000
1743045419.577,-37.598,-42.480,-10.742,-28.809,0.000
1743045419.581,-40.039,-37.598,-18.555,-27.344,0.000
1743045419.585,-31.250,-35.156,-22.949,-19.043,0.000
1743045419.589,-26.367,-36.133,-28.320,-21.973,0.000
1743045419.592,-26.855,-40.527,-27.344,-23.926,0.000
1743045419.596,-27.832,-35.156,-20.508,-12.695,0.000
1743045419.600,-32.227,-23.438,-21.484,-10.742,0.000
1743045419.604,-32.227,-23.926,-22.461,-11.230,0.000
1743045419.608,-34.668,-31.738,-29.297,-14.160,0.000
1743045419.612,-42.480,-37.598,-37.598,-24.902,0.000
1743045419.616,-31.250,-33.691,-24.902,-18.555,0.000
1743045419.620,-26.367,-38.086,-20.020,-15.137,0.000
1743045419.624,-36.621,-55.176,-28.809,-29.297,0.000
1743045419.628,-32.715,-44.922,-33.203,-30.273,0.000
1743045419.631,-35.156,-35.645,0.000,-25.879,0.000
1743045419.635,-46.387,-37.109,0.000,-34.180,0.000
1743045419.639,-49.316,-27.344,0.000,-35.156,0.000
1743045419.643,-41.504,-26.367,0.000,-31.250,0.000
1743045419.647,-47.363,-33.691,0.000,-32.715,0.000
1743045419.651,-53.223,-36.133,0.000,-43.945,0.000
1743045419.655,-45.898,-35.645,0.000,-47.363,0.000
1743045419.659,-42.480,-29.297,0.000,-43.945,0.000
1743045419.663,-35.156,-22.949,0.000,-34.668,0.000
1743045419.667,-27.344,-15.625,0.000,-28.809,0.000
1743045419.671,-26.855,-23.926,0.000,-39.551,0.000
1743045419.674,-24.902,-37.598,0.000,-37.109,0.000
1743045419.678,-20.020,-33.691,-31.250,-22.461,0.000
1743045419.682,-19.043,-30.762,-32.227,-20.020,0.000
1743045419.686,-18.555,-34.180,-16.602,-19.043,0.000
1743045419.690,-18.066,-32.227,-2.930,-25.879,0.000
1743045419.694,-22.949,-20.996,-13.184,-26.367,0.000
1743045419.698,-28.320,-16.113,-19.043,-21.973,0.000
1743045419.702,-26.855,-20.996,-18.066,-26.367,0.000
1743045419.706,-26.367,-22.461,-22.949,-26.367,0.000
1743045419.710,-29.297,-25.391,-33.203,-23.926,0.000
1743045419.713,-35.156,-32.715,-44.434,-23.438,0.000
1743045419.717,-35.645,-33.203,-41.992,-15.625,0.000
1743045419.721,-29.297,-31.250,-35.156,-12.695,0.000
1743045419.725,-25.391,-35.645,-39.062,-18.066,0.000
1743045419.729,-34.180,-43.457,-35.645,-24.414,0.000
1743045419.733,-31.738,-35.645,-14.648,-17.578,0.000
1743045419.737,-26.855,-24.414,-2.930,-14.160,0.000
1743045419.741,-38.086,-21.484,-13.672,-20.508,0.000
1743045419.745,-47.852,-30.273,-20.996,-31.250,0.000
1743045419.749,-40.039,-29.785,-21.484,-32.227,0.000
1743045419.753,-27.832,-18.066,-22.949,-20.508,0.000
1743045419.756,-21.484,-16.602,-22.949,-17.090,0.000
1743045419.760,-19.531,-22.461,-24.902,-16.602,0.000
1743045419.764,-20.996,-23.926,-30.273,-15.137,0.000
1743045419.768,-20.996,-18.555,-41.016,-8.301,0.000
1743045419.772,-15.137,-15.137,-41.992,-0.977,0.000
1743045419.776,-20.020,-21.484,-33.203,-12.207,0.000
1743045419.780,-25.879,-29.297,-20.996,-26.367,0.000
1743045419.784,-23.438,-31.738,-9.277,-27.344,0.000
1743045419.788,-37.598,-29.297,-18.555,-26.855,0.000
1743045419.792,-38.086,-28.320,-23.438,-24.902,0.000
1743045419.796,-24.902,-34.180,-16.113,-21.973,0.000
1743045419.799,-23.438,-29.297,-21.973,-25.391,0.000
1743045419.803,-23.438,-17.578,-30.273,-29.297,0.000
1743045419.807,-19.043,-17.578,-36.133,-22.461,0.000
1743045419.811,-18.066,-21.973,-44.922,-14.160,0.000
1743045419.815,-24.414,-23.926,-39.062,-11.719,0.000
1743045419.819,0.000,-24.902,-19.531,-20.020,0.000
1743045419.823,0.000,-31.738,-9.766,-25.391,0.000
1743045419.827,0.000,-33.691,-11.230,-25.879,0.000
1743045419.831,0.000,-31.250,-15.625,-24.902,0.000
1743045419.835,0.000,-34.180,-25.879,-23.438,0.000
1743045419.839,0.000,-35.156,-24.414,-37.109,0.000
1743045419.842,0.000,-30.762,-15.625,-30.273,0.000
1743045419.846,0.000,-15.625,-22.461,-13.672,0.000
1743045419.850,0.000,-8.301,-28.809,-38.574,0.000
1743045419.854,0.000,-14.648,-27.344,-54.199,0.000
1743045419.858,0.000,-16.602,-35.645,-39.062,0.000
1743045419.862,0.000,-7.324,-43.457,-33.691,0.000
1743045419.866,-34.180,-3.906,0.000,-33.691,0.000
1743045419.870,-34.180,-20.020,0.000,-47.852,0.000
1743045419.874,-33.691,-25.879,0.000,-52.246,0.000
1743045419.878,-38.086,-18.555,0.000,-42.969,0.000
1743045419.881,-35.645,-5.859,0.000,-45.410,0.000
1743045419.885,-41.016,-5.859,0.000,-52.246,0.000
1743045419.889,-29.785,-23.926,0.000,-58.105,0.000
1743045419.893,-10.254,-27.832,0.000,-46.387,0.000
1743045419.897,-22.461,-20.508,0.000,-32.227,0.000
1743045419.901,-29.297,-31.738,0.000,-39.551,0.000
1743045419.905,-26.367,-35.156,0.000,-37.598,0.000
1743045419.909,-18.555,-28.809,0.000,-28.809,0.000
1743045419.913,-31.250,-26.855,-32.715,-37.598,0.000
1743045419.917,-29.785,-17.578,-36.133,-41.016,0.000
1743045419.921,-16.602,-11.719,-38.574,-38.574,0.000
1743045419.924,-10.742,-17.090,-39.551,-36.621,0.000
1743045419.928,-14.160,-23.926,-39.551,-40.039,0.000
1743045419.932,-25.391,-21.484,-39.551,-40.527,0.000
1743045419.936,-28.809,-26.367,-31.738,-39.062,0.000
1743045419.940,-29.297,-30.762,-19.531,-40.039,0.000
1743045419.944,-25.391,-19.043,-17.090,-34.180,0.000
1743045419.948,-16.113,-12.207,-24.414,-22.461,0.000
1743045419.952,-20.996,-16.602,-25.391,-12.695,0.000
1743045419.956,-30.762,-26.855,-28.809,-22.949,0.000
1743045419.960,0.000,-33.203,-36.133,-33.203,0.000
1743045419.963,0.000,-33.203,-25.879,-30.273,0.000
1743045419.967,0.000,-23.926,-21.973,-28.809,0.000
1743045419.971,0.000,-17.578,-24.902,-20.020,0.000
1743045419.975,0.000,-20.996,-24.902,-15.625,0.000
1743045419.979,0.000,-19.531,-28.809,-21.484,0.000
1743045419.983,0.000,-19.043,-36.133,-22.461,0.000
1743045419.987,0.000,-15.625,-34.180,-14.648,0.000
1743045419.991,0.000,-11.719,-37.109,-16.602,0.000
1743045419.995,0.000,-16.113,-34.668,-24.414,0.000
1743045419.999,0.000,-21.484,-20.020,-21.484,0.000
1743045420.003,0.000,-21.973,-22.949,-16.602,0.000
1743045420.006,-25.879,-24.414,-31.738,-23.926,0.000
1743045420.010,-32.227,-37.109,-24.414,-34.668,0.000
1743045420.014,-29.785,-40.527,-17.090,-35.156,0.000
1743045420.018,-34.180,-38.574,-16.602,-37.109,0.000
1743045420.022,-41.504,-31.250,-16.602,-44.434,0.000
1743045420.026,-35.645,-25.879,-22.949,-40.527,0.000
1743045420.030,-33.203,-28.320,-28.320,-31.250,0.000
1743045420.034,-37.598,-16.602,-23.438,-25.879,0.000
1743045420.038,-32.715,-20.996,-18.555,-20.996,0.000
1743045420.042,-26.367,-23.438,-16.113,-13.184,0.000
1743045420.045,-24.902,-13.672,-18.066,-15.137,0.000
1743045420.049,-29.297,-21.973,-27.344,-28.320,0.000
1743045420.053,-36.621,-31.738,-34.668,-32.715,0.000
1743045420.057,-34.668,-23.438,-33.691,-31.738,0.000
1743045420.061,-26.855,-18.066,-34.180,-33.203,0.000
1743045420.065,-27.344,-22.949,-28.809,-34.180,0.000
1743045420.069,-25.879,-29.297,-13.184,-32.227,0.000
1743045420.073,-24.902,-30.273,-12.695,-26.855,0.000
1743045420.077,-28.320,-25.391,-24.902,-26.855,0.000
1743045420.081,-28.320,-20.020,-29.297,-31.738,0.000
1743045420.085,-24.902,-24.902,-35.156,-23.438,0.000
1743045420.088,-18.555,-22.949,-47.363,-13.672,0.000
1743045420.092,-31.738,-23.438,-28.809,-31.738,0.000
1743045420.096,-37.598,-28.809,-9.277,-31.250,0.000
1743045420.100,0.000,-35.645,-38.574,-25.879,0.000
1743045420.104,0.000,-40.039,-52.246,-31.738,0.000
1743045420.108,0.000,-42.969,-34.668,-37.109,0.000
1743045420.112,0.000,-49.316,-23.926,-39.062,0.000
1743045420.116,0.000,-46.387,-24.902,-36.621,0.000
1743045420.120,0.000,-44.434,-28.320,-30.273,0.000
1743045420.124,0.000,-35.156,-28.809,-20.996,0.000
1743045420.128,0.000,-20.996,-27.832,-28.320,0.000
1743045420.131,0.000,-14.160,-21.973,-34.668,0.000
1743045420.135,0.000,-23.438,-18.066,-30.273,0.000
1743045420.139,0.000,-36.621,-25.391,-32.227,0.000
1743045420.143,0.000,-32.715,-29.785,-35.156,0.000
1743045420.147,-26.855,-20.996,-23.438,-25.879,0.000
1743045420.151,-33.203,-23.438,-25.879,-26.367,0.000
1743045420.155,-29.785,-31.738,-34.180,-18.555,0.000
1743045420.159,-21.973,-38.086,-35.156,-8.301,0.000
1743045420.163,-20.996,-41.504,-33.203,-17.578,0.000
1743045420.167,-19.531,-34.180,-30.762,-23.926,0.000
1743045420.171,-19.043,-28.320,-22.461,-27.344,0.000
1743045420.174,-29.785,-35.156,-16.113,-27.832,0.000
1743045420.178,-44.922,-39.551,-18.066,-31.250,0.000
1743045420.182,-49.316,-38.086,-20.508,-35.156,0.000
1743045420.186,-43.457,-33.203,-23.438,-25.391,0.000
1743045420.190,-40.527,-36.133,-23.438,-26.367,0.000
1743045420.194,-42.480,-34.668,-20.020,-33.203,0.000
1743045420.198,-41.016,-26.855,-24.902,-28.320,0.000
1743045420.202,-39.062,-37.598,-38.574,-31.250,0.000
1743045420.206,-40.527,-38.086,-48.828,-32.715,0.000
1743045420.210,-45.410,-33.203,-39.062,-31.738,0.000
1743045420.213,-41.992,-36.621,-20.996,-34.180,0.000
1743045420.217,-32.715,-34.180,-11.230,-28.809,0.000
1743045420.221,-31.738,-39.062,-16.113,-18.555,0.000
1743045420.225,-39.551,-44.434,-31.250,-23.438,0.000
1743045420.229,-26.855,-26.855,-28.320,-26.855,0.000
1743045420.233,-25.879,-23.438,-20.020,-22.461,0.000
1743045420.237,-31.738,-36.133,-26.855,-24.902,0.000
1743045420.241,-16.602,-30.762,-28.320,-17.578,0.000
1743045420.245,-17.090,-26.367,-28.320,-16.602,0.000
1743045420.249,-23.926,-30.762,-36.621,-20.020,0.000
1743045420.253,-19.043,-28.320,-35.645,-17.090,0.000
1743045420.256,-17.578,-23.926,-39.062,-9.766,0.000
1743045420.260,-15.137,-20.020,-41.016,-13.672,0.000
1743045420.264,-16.602,-24.414,-34.180,-21.973,0.000
1743045420.268,-23.926,-30.762,-20.508,-23.438,0.000
1743045420.272,-21.484,-23.926,-14.648,-26.367,0.000
1743045420.276,-17.578,-20.020,-19.043,-12.695,0.000
1743045420.280,-21.484,-25.879,-24.902,-14.648,0.000
1743045420.284,-25.391,-28.320,-20.996,-24.902,0.000
1743045420.288,-27.344,-22.949,-17.578,-21.484,0.000
1743045420.292,-30.273,-31.250,-37.598,-21.484,0.000
1743045420.296,-29.785,-37.598,-46.387,-21.973,0.000
1743045420.299,-32.227,-26.367,-33.691,-16.602,0.000
1743045420.303,-29.297,-31.250,-28.809,-15.625,0.000
1743045420.307,-27.344,-37.109,-30.762,-20.996,0.000
1743045420.311,-26.855,-33.691,-34.668,-19.043,0.000
1743045420.315,-20.020,-30.762,-38.086,-20.996,0.000
1743045420.319,-12.207,-27.344,-34.668,-15.625,0.000
1743045420.323,-13.184,-30.273,-35.156,-12.695,0.000
1743045420.327,-15.137,-33.691,-34.180,-19.043,0.000
1743045420.331,-19.531,-33.203,-24.902,-24.902,0.000
1743045420.335,-20.996,-28.809,-17.090,-27.344,0.000
1743045420.339,-25.391,-28.809,-23.926,-26.855,0.000
1743045420.342,-32.715,-35.156,-42.480,-26.367,0.000
1743045420.346,-15.625,-20.996,-39.062,-3.418,0.000
1743045420.350,-6.836,-16.113,-30.273,5.859,0.000
1743045420.354,-20.508,-28.809,-38.574,-5.371,0.000
1743045420.358,-25.879,-32.227,-35.645,-10.742,0.000
1743045420.362,-25.879,-30.762,-23.926,-9.766,0.000
1743045420.366,-27.344,-29.297,-26.367,-8.789,0.000
1743045420.370,-30.762,-30.273,-33.691,-15.137,0.000
1743045420.374,-30.762,-34.668,-37.598,-14.160,0.000
1743045420.378,-37.109,-38.086,-41.016,-19.043,0.000
1743045420.382,-51.758,-39.062,-38.086,-36.133,0.000
1743045420.385,-53.711,-36.621,-27.832,-41.992,0.000
1743045420.389,-47.363,-25.391,-22.949,-30.762,0.000
1743045420.393,-38.086,-15.625,-29.297,-22.461,0.000
1743045420.397,-25.879,-16.602,-32.227,-30.273,0.000
1743045420.401,-27.344,-21.484,-35.645,-32.715,0.000
1743045420.405,-30.273,-27.832,-33.691,-29.297,0.000
1743045420.409,-28.320,-30.273,-26.367,-35.156,0.000
1743045420.413,-32.227,-35.645,-28.809,-34.668,0.000
1743045420.417,-26.855,-28.809,-35.645,-20.020,0.000
1743045420.421,-24.902,-29.785,-42.480,-11.230,0.000
1743045420.424,-33.691,-37.598,-44.434,-16.602,0.000
1743045420.428,0.000,-34.668,-26.855,-23.926,0.000
1743045420.432,0.000,-36.621,-20.020,-26.367,0.000
1743045420.436,0.000,-30.762,-25.879,-22.949,0.000
1743045420.440,0.000,-31.250,-16.113,-17.090,0.000
1743045420.444,0.000,-36.621,-20.508,-16.113,0.000
1743045420.448,0.000,-22.949,-28.320,-12.207,0.000
1743045420.452,0.000,-19.531,-22.461,-11.719,0.000
1743045420.456,0.000,-21.484,-25.391,-17.578,0.000
1743045420.460,0.000,-15.137,-24.414,-11.719,0.000
1743045420.464,0.000,-17.090,-24.902,-4.883,0.000
1743045420.467,0.000,-25.391,-28.809,-17.090,0.000
1743045420.471,0.000,-21.973,-24.902,-34.180,0.000
1743045420.475,-42.969,-19.043,-31.738,-47.852,0.000
1743045420.479,-37.109,-22.461,-25.391,-45.410,0.000
1743045420.483,-26.367,-16.602,-12.207,-29.297,0.000
1743045420.487,-24.902,-14.160,-18.555,-23.438,0.000
1743045420.491,-23.926,-21.973,-21.973,-22.949,0.000
1743045420.495,-18.555,-20.020,-9.277,-14.160,0.000
1743045420.499,-20.020,-22.461,-12.695,-12.695,0.000
1743045420.503,-27.832,-27.832,-34.180,-13.672,0.000
1743045420.506,-39.062,-31.738,-40.527,-30.273,0.000
1743045420.510,-37.598,-39.062,-35.156,-52.734,0.000
1743045420.514,-34.668,-39.062,-26.367,-53.711,0.000
1743045420.518,-38.574,-32.227,-27.344,-47.363,0.000
1743045420.522,0.000,-31.738,-40.039,-49.805,0.000
1743045420.526,0.000,-32.715,-39.062,-38.086,0.000
1743045420.530,0.000,-28.320,-20.020,-20.996,0.000
1743045420.534,0.000,-35.645,-18.066,-20.508,0.000
1743045420.538,0.000,-36.133,-25.879,-20.020,0.000
1743045420.542,0.000,-37.109,-28.320,-17.578,0.000
1743045420.546,0.000,-43.457,-37.598,-30.273,0.000
1743045420.549,0.000,-40.039,-33.203,-43.945,0.000
1743045420.553,0.000,-22.949,-16.602,-36.133,0.000
1743045420.557,0.000,-11.230,-28.320,-26.367,0.000
1743045420.561,0.000,-18.066,-42.480,-31.250,0.000
1743045420.565,0.000,-20.020,-31.738,-30.762,0.000
1743045420.569,-19.043,-16.113,-21.973,-26.367,0.000
1743045420.573,-25.391,-23.926,-24.414,-28.320,0.000
1743045420.577,-31.738,-32.227,-24.414,-30.762,0.000
1743045420.581,-32.227,-32.715,-25.391,-26.367,0.000
1743045420.585,-28.320,-28.320,-24.414,-24.902,0.000
1743045420.589,-38.574,-31.250,-31.738,-39.551,0.000
1743045420.592,-45.898,-34.180,-44.434,-41.016,0.000
1743045420.596,-46.875,-26.855,-38.574,-31.250,0.000
1743045420.600,-43.945,-26.367,-38.574,-24.414,0.000
1743045420.604,-39.062,-17.578,-43.457,-19.531,0.000
1743045420.608,-37.598,-16.602,-35.156,-25.391,0.000
1743045420.612,-38.086,-25.879,-30.762,-39.062,0.000
1743045420.616,-37.109,-22.461,-25.879,-35.645,0.000
1743045420.620,-30.762,-20.996,-23.926,-19.531,0.000
1743045420.624,-31.738,-27.832,-32.227,-24.902,0.000
1743045420.628,-35.156,-35.645,-31.250,-31.250,0.000
1743045420.632,-32.227,-35.156,-32.715,-33.691,0.000
1743045420.635,-27.344,-26.367,-31.250,-30.762,0.000
1743045420.639,-33.691,-30.273,-24.414,-32.715,0.000
1743045420.643,-31.738,-34.180,-32.227,-35.645,0.000
1743045420.647,-20.508,-24.414,-37.598,-28.809,0.000
1743045420.651,-22.461,-20.508,-41.992,-24.902,0.000
1743045420.655,-26.367,-17.090,-39.551,-18.555,0.000
1743045420.659,-16.113,-10.254,-23.926,-10.254,0.000
1743045420.663,-11.230,-19.043,-15.625,-3.418,0.000
1743045420.667,-20.996,-19.043,-14.648,-5.859,0.000
1743045420.671,-25.391,-15.137,-15.625,-7.324,0.000
1743045420.674,-30.273,-30.762,-21.484,-10.254,0.000
1743045420.678,-28.320,-44.434,-22.461,-12.695,0.000
1743045420.682,-16.602,-27.344,-20.996,-9.766,0.000
1743045420.686,-16.113,-19.043,-30.273,-16.113,0.000
1743045420.690,-31.250,-30.273,-29.297,-26.367,0.000
1743045420.694,-35.645,-27.832,-18.066,-25.391,0.000
1743045420.698,-30.273,-31.738,-21.973,-20.996,0.000
1743045420.702,-30.273,-38.086,-27.344,-26.367,0.000
1743045420.706,-33.203,-35.645,-34.668,-28.320,0.000
1743045420.710,-32.715,-31.738,-30.273,-16.602,0.000
1743045420.714,-26.367,-28.320,-20.508,-12.695,0.000
1743045420.717,-27.344,-32.715,-29.785,-21.973,0.000
1743045420.721,-39.551,-25.391,-29.785,-34.668,0.000
1743045420.725,-33.203,-17.578,-24.414,-33.691,0.000
1743045420.729,-29.785,-36.621,-28.809,-36.133,0.000
1743045420.733,-32.715,-41.504,-23.438,-30.762,0.000
1743045420.737,-35.156,-35.156,-15.137,-28.320,0.000
1743045420.741,-43.457,-36.621,-17.090,-33.203,0.000
1743045420.745,-34.180,-29.297,-23.438,-31.250,0.000
1743045420.749,-31.738,-28.809,-28.320,-20.996,0.000
1743045420.753,-37.109,-30.762,-33.203,-18.555,0.000
1743045420.757,-28.320,-17.578,-27.832,-18.555,0.000
1743045420.760,-26.855,-11.719,-20.508,-20.508,0.000
1743045420.764,-29.297,-20.996,-19.043,-33.691,0.000
1743045420.768,-20.996,-22.461,-11.230,-27.344,0.000
1743045420.772,-20.996,-23.438,-18.066,-18.066,0.000
1743045420.776,-28.320,-33.691,-27.344,-15.625,0.000
1743045420.780,-26.367,-28.809,-22.949,-9.766,0.000
1743045420.784,-30.273,-19.043,-21.973,-14.160,0.000
1743045420.788,-35.156,-29.297,-21.484,-18.066,0.000
1743045420.792,-37.598,-36.621,-23.438,-22.949,0.000
1743045420.796,-44.922,-28.809,-22.949,-25.879,0.000
1743045420.799,-41.016,-18.555,-25.879,-18.555,0.000
1743045420.803,-41.016,-29.297,-20.996,-27.832,0.000
1743045420.807,-49.805,-38.574,-9.277,-37.598,0.000
1743045420.811,-52.734,-34.180,-19.043,-41.992,0.000
1743045420.815,-40.039,-24.902,-21.484,-31.738,0.000
1743045420.819,-29.297,-30.273,-13.672,-22.949,0.000
1743045420.823,-37.109,-44.434,-14.648,-27.344,0.000
1743045420.827,-30.762,-35.645,-21.484,-23.438,0.000
1743045420.831,-29.297,-19.043,-27.832,-20.508,0.000
1743045420.835,-36.133,-16.113,-23.438,-21.484,0.000
1743045420.839,-41.992,-24.414,-24.414,-24.414,0.000
1743045420.842,-49.316,-39.551,-18.555,-42.969,0.000
1743045420.846,-55.664,-45.898,-10.742,-48.340,0.000
1743045420.850,-47.852,-29.297,0.000,-37.598,0.000
1743045420.854,-40.039,-22.949,0.000,-38.086,0.000
1743045420.858,-41.016,-34.180,0.000,-40.527,0.000
1743045420.862,-44.434,-35.156,0.000,-33.203,0.000
1743045420.866,-44.922,-29.785,0.000,-33.203,0.000
1743045420.870,-55.176,-36.133,0.000,-42.480,0.000
1743045420.874,-51.758,-35.156,0.000,-37.598,0.000
1743045420.878,-40.039,-32.715,0.000,-35.156,0.000
1743045420.882,-44.922,-41.504,0.000,-37.598,0.000
1743045420.885,-38.574,-32.227,0.000,-36.621,0.000
1743045420.889,-31.250,-23.926,0.000,-32.715,0.000
1743045420.893,-31.738,-19.043,0.000,-26.855,0.000
1743045420.897,-22.461,-17.578,-21.973,-23.926,0.000
1743045420.901,-18.066,-24.902,-26.855,-24.902,0.000
1743045420.905,-16.602,-13.672,-26.855,-20.508,0.000
1743045420.909,-17.578,-18.555,-32.227,-23.438,0.000
1743045420.913,-23.438,-31.738,-29.297,-25.879,0.000
1743045420.917,-27.832,-30.273,-27.344,-21.484,0.000
1743045420.921,-41.016,-39.551,-31.738,-30.762,0.000
1743045420.924,-44.922,-44.434,-34.668,-34.668,0.000
1743045420.928,-36.133,-36.621,-36.621,-16.602,0.000
1743045420.932,-34.668,-38.574,-34.668,-17.578,0.000
1743045420.936,-35.645,-47.852,-25.391,-34.180,0.000
1743045420.940,-26.855,-34.180,-15.137,-22.949,0.000
1743045420.944,-24.902,-22.949,-27.344,-8.789,0.000
1743045420.948,-25.391,-29.785,-31.250,-13.184,0.000
1743045420.952,-27.344,-34.668,-25.879,-21.973,0.000
1743045420.956,-27.344,-41.504,-26.367,-13.672,0.000
1743045420.960,-15.625,-42.969,-27.832,-4.883,0.000
1743045420.963,-19.531,-30.762,-19.531,-20.996,0.000
1743045420.967,-38.574,-19.531,-26.367,-39.551,0.000
1743045420.971,-37.109,-19.043,-36.133,-33.203,0.000
1743045420.975,-39.551,-18.066,-36.621,-41.016,0.000
1743045420.979,-42.969,-15.625,-38.574,-46.387,0.000
1743045420.983,-47.852,-32.227,-43.457,-50.293,0.000
1743045420.987,-57.129,-33.203,-38.574,-62.012,0.000
1743045420.991,-54.688,-28.809,0.000,-61.523,0.000
1743045420.995,-67.383,-36.133,0.000,-68.359,0.000
1743045420.999,-68.848,-34.668,0.000,-66.895,0.000
1743045421.003,-59.082,-27.344,0.000,-50.781,0.000
1743045421.006,-48.828,-19.531,0.000,-41.992,0.000
1743045421.010,-41.016,-21.973,0.000,-46.387,0.000
1743045421.014,-44.434,-31.250,0.000,-50.781,0.000
1743045421.018,-44.922,-25.879,0.000,-46.875,0.000
1743045421.022,-40.039,-17.578,0.000,-46.387,0.000
1743045421.026,-38.574,-20.996,0.000,-40.527,0.000
1743045421.030,-36.621,-36.621,0.000,-31.250,0.000
1743045421.034,-47.363,-45.898,0.000,-43.457,0.000
1743045421.038,-33.691,-31.250,-22.461,-34.668,0.000
1743045421.042,-15.625,-20.508,-15.137,-19.043,0.000
1743045421.046,-27.832,-32.227,-39.551,-35.156,0.000
1743045421.049,-36.621,-41.992,-48.340,-41.504,0.000
1743045421.053,-31.738,-34.180,-28.809,-23.438,0.000
1743045421.057,-32.227,-33.203,-31.250,-13.672,0.000
1743045421.061,-35.156,-28.809,-34.180,-19.531,0.000
1743045421.065,-32.227,-31.738,-23.438,-24.414,0.000
1743045421.069,-25.879,-31.738,-26.855,-21.484,0.000
1743045421.073,-32.715,-25.391,-29.785,-25.391,0.000
1743045421.077,-28.809,-30.762,-33.691,-29.297,0.000
1743045421.081,-15.137,-26.855,-31.250,-28.809,0.000
1743045421.085,-17.090,-24.902,-20.996,-27.832,0.000
1743045421.089,-20.020,-21.484,-25.879,-23.926,0.000
1743045421.092,-16.113,-20.508,-35.645,-9.766,0.000
1743045421.096,-20.508,-26.855,-41.992,-16.113,0.000
1743045421.100,-23.438,-19.043,-40.039,-24.414,0.000
1743045421.104,-26.855,-15.137,-31.738,-17.090,0.000
1743045421.108,-29.785,-26.367,-34.668,-19.531,0.000
1743045421.112,-27.832,-32.715,-32.227,-27.344,0.000
1743045421.116,-36.133,-45.898,-22.461,-33.691,0.000
1743045421.120,-31.250,-50.293,-11.719,-29.785,0.000
1743045421.124,-25.391,-36.621,-4.883,-24.902,0.000
1743045421.128,-25.391,-28.320,-11.230,-27.344,0.000
1743045421.131,-34.668,-24.414,-31.738,-33.691,0.000
1743045421.135,-42.480,-31.738,-40.039,-27.832,0.000
1743045421.139,-40.039,-44.434,-31.738,-26.855,0.000
1743045421.143,-34.668,-36.621,-21.484,-26.855,0.000
1743045421.147,-27.832,-41.992,-37.598,-26.855,0.000
1743045421.151,-33.691,-49.805,-43.457,-35.156,0.000
1743045421.155,-24.902,-32.227,-36.133,-29.785,0.000
1743045421.159,-14.160,-22.461,-37.598,-21.484,0.000
1743045421.163,-28.809,-34.180,-26.855,-23.926,0.000
1743045421.167,-46.387,-42.969,-18.555,-26.855,0.000
1743045421.171,-42.969,-33.203,-12.695,-22.949,0.000
1743045421.174,-34.180,-24.902,-9.277,-20.508,0.000
1743045421.178,-38.086,-34.668,-15.625,-20.020,0.000
1743045421.182,-37.598,-42.480,-24.902,-22.949,0.000
1743045421.186,-42.480,-35.645,-35.645,-29.785,0.000
1743045421.190,-37.109,-33.203,-40.039,-25.391,0.000
1743045421.194,-30.762,-32.227,-35.156,-19.531,0.000
1743045421.198,-32.227,-30.273,-28.320,-28.320,0.000
1743045421.202,-25.879,-29.297,-14.160,-24.902,0.000
1743045421.206,-27.344,-25.879,-9.277,-9.277,0.000
1743045421.210,-33.691,-26.855,-19.043,-13.672,0.000
1743045421.214,-33.691,-26.855,-23.926,-14.648,0.000
1743045421.217,-30.273,-25.391,-27.832,-11.719,0.000
1743045421.221,-32.227,-25.391,-31.738,-13.184,0.000
1743045421.225,-34.668,-34.180,-24.414,-11.230,0.000
1743045421.229,-21.484,-45.410,-22.461,-2.930,0.000
1743045421.233,-27.344,-35.156,-43.457,-8.789,0.000
1743045421.237,-36.133,-23.926,-51.270,-18.066,0.000
1743045421.241,-32.715,-26.855,-34.180,-18.555,0.000
1743045421.245,-24.414,-20.996,-15.625,-17.090,0.000
1743045421.249,-23.926,-17.578,-19.043,-19.531,0.000
1743045421.253,-30.762,-12.695,-19.043,-26.367,0.000
1743045421.256,-34.668,-20.508,-18.066,-27.344,0.000
1743045421.260,-33.203,-34.180,-22.949,-26.367,0.000
1743045421.264,-24.902,-27.832,-19.043,-22.949,0.000
1743045421.268,-21.973,-22.461,-27.344,-13.184,0.000
1743045421.272,-24.414,-27.832,-29.785,-15.137,0.000
1743045421.276,-31.738,-35.645,-25.391,-21.484,0.000
1743045421.280,-36.621,-39.551,-34.668,-29.785,0.000
1743045421.284,-32.715,-34.668,-41.504,-31.738,0.000
1743045421.288,-30.762,-31.738,-33.203,-24.902,0.000
1743045421.292,-32.715,-26.855,-28.809,-20.508,0.000
1743045421.296,-26.367,-27.344,-28.320,-16.113,0.000
1743045421.299,-20.996,-28.320,-23.438,-2.930,0.000
1743045421.303,-12.695,-19.531,-16.602,-0.488,0.000
1743045421.307,-10.742,-12.207,-15.137,-8.301,0.000
1743045421.311,-12.695,-13.672,-20.508,-1.953,0.000
1743045421.315,-20.508,-30.762,-29.297,-4.395,0.000
1743045421.319,-33.203,-39.551,-35.645,-16.113,0.000
1743045421.323,-38.574,-37.109,-32.227,-31.250,0.000
1743045421.327,-41.504,-44.922,-39.551,-40.039,0.000
1743045421.331,-41.504,-41.992,-43.945,-39.551,0.000
1743045421.335,-37.109,-25.879,-31.250,-38.574,0.000
1743045421.339,-33.203,-29.785,-20.996,-27.832,0.000
1743045421.342,-25.879,-41.992,-24.414,-19.531,0.000
1743045421.346,-24.414,-27.832,-32.227,-20.020,0.000
1743045421.350,-24.902,-11.719,-34.668,-15.625,0.000
1743045421.354,-21.484,-14.648,-38.086,-12.695,0.000
1743045421.358,-26.855,-22.949,-29.297,-15.625,0.000
1743045421.362,-30.762,-38.574,-27.832,-23.438,0.000
1743045421.366,-29.297,-45.898,-31.738,-22.461,0.000
1743045421.370,-29.297,-31.250,-23.926,-20.996,0.000
1743045421.374,-22.461,-20.508,-16.113,-21.973,0.000
1743045421.378,-15.625,-25.391,-18.066,-17.578,0.000
1743045421.381,-19.043,-27.832,-23.926,-17.090,0.000
1743045421.385,-15.625,-23.926,-23.926,-17.578,0.000
1743045421.389,-21.484,-28.320,-27.344,-26.855,0.000
1743045421.393,-27.344,-36.133,-29.297,-35.156,0.000
1743045421.397,-22.949,-32.227,-32.227,-25.879,0.000
1743045421.401,-20.508,-26.367,-33.691,-25.391,0.000
1743045421.405,-24.414,-27.832,-27.344,-27.344,0.000
1743045421.409,-33.691,-29.297,-20.996,-25.879,0.000
1743045421.413,-27.832,-30.762,-24.414,-33.203,0.000
1743045421.417,-23.926,-34.180,-29.297,-41.016,0.000
1743045421.421,-32.715,-33.691,-26.855,-40.527,0.000
1743045421.424,-28.320,-28.809,-35.156,-35.645,0.000
1743045421.428,-28.320,-24.414,-33.691,-32.715,0.000
1743045421.432,-23.926,-14.648,-25.391,-25.391,0.000
1743045421.436,-26.367,-20.020,-31.738,-19.043,0.000
1743045421.440,-27.832,-26.855,-28.320,-16.602,0.000
1743045421.444,-23.926,-31.738,-22.461,-23.438,0.000
1743045421.448,-22.461,-37.109,-23.438,-27.832,0.000
1743045421.452,-26.367,-30.762,-16.602,-22.461,0.000
1743045421.456,-30.762,-20.020,-8.789,-23.926,0.000
1743045421.460,-24.902,-20.020,-13.184,-26.367,0.000
1743045421.464,-25.391,-22.461,-19.531,-19.043,0.000
1743045421.467,-25.391,-27.832,-13.184,-10.254,0.000
1743045421.471,-21.484,-35.645,-10.254,-10.742,0.000
1743045421.475,-31.738,-32.227,-30.273,-31.250,0.000
1743045421.479,-40.039,-36.621,-38.086,-55.176,0.000
1743045421.483,-26.855,-29.785,-27.832,-45.410,0.000
1743045421.487,-23.926,-16.602,-20.020,-29.785,0.000
1743045421.491,-30.273,-26.367,-29.785,-39.551,0.000
1743045421.495,-34.668,-38.086,-44.434,-44.922,0.000
1743045421.499,-41.992,-31.738,-38.086,-33.691,0.000
1743045421.503,-41.016,-23.926,-31.738,-26.367,0.000
1743045421.507,-36.621,-22.949,-20.508,-28.320,0.000
1743045421.510,-29.785,-19.531,-5.859,-28.320,0.000
1743045421.514,-24.414,-20.020,-18.066,-24.902,0.000
1743045421.518,-25.879,-20.996,-27.344,-19.531,0.000
1743045421.522,-32.227,-14.648,-19.531,-15.625,0.000
1743045421.526,-32.227,-21.973,-21.484,-17.578,0.000
1743045421.530,-33.691,-35.156,-32.715,-20.508,0.000
1743045421.534,-24.414,-24.414,-23.926,-16.602,0.000
1743045421.538,-19.531,-14.160,-5.859,-21.484,0.000
1743045421.542,-23.926,-19.531,-14.648,-32.227,0.000
1743045421.546,-32.715,-24.414,-31.250,-34.668,0.000
1743045421.549,-37.109,-22.949,-31.738,-29.297,0.000
1743045421.553,-31.250,-22.949,-44.922,-29.785,0.000
1743045421.557,-24.414,-19.043,-49.316,-26.367,0.000
1743045421.561,-22.949,-16.113,-22.461,-13.672,0.000
1743045421.565,-28.809,-29.297,-7.324,-20.996,0.000
1743045421.569,-31.738,-28.320,-16.602,-30.762,0.000
1743045421.573,-30.762,-11.230,-20.996,-31.738,0.000
1743045421.577,-34.180,-31.738,-21.973,-29.297,0.000
1743045421.581,-34.668,-45.410,-22.461,-20.508,0.000
1743045421.585,-27.832,-35.156,-25.391,-14.648,0.000
1743045421.589,-29.297,-34.180,-32.715,-22.461,0.000
1743045421.592,-28.320,-34.180,-33.203,-29.297,0.000
1743045421.596,-25.879,-23.926,-36.133,-24.414,0.000
1743045421.600,-32.715,-25.879,-35.156,-23.926,0.000
1743045421.604,-34.180,-30.762,-24.414,-29.785,0.000
1743045421.608,-28.809,-27.344,-25.391,-29.785,0.000
1743045421.612,-25.391,-26.855,-25.391,-28.320,0.000
1743045421.616,-20.020,-23.438,-20.996,-22.461,0.000
1743045421.620,-22.949,-21.484,-17.090,-19.531,0.000
1743045421.624,-33.691,-33.203,-32.227,-23.926,0.000
1743045421.628,-32.227,-31.738,-37.109,-20.508,0.000
1743045421.631,-37.109,-27.344,-24.902,-25.391,0.000
1743045421.635,-41.992,-25.879,-20.996,-30.762,0.000
1743045421.639,-36.133,-25.391,-22.461,-38.086,0.000
1743045421.643,-31.738,-24.902,-32.715,-29.785,0.000
1743045421.647,-27.832,-19.043,-41.504,-16.602,0.000
1743045421.651,-23.926,-23.926,-36.621,-19.043,0.000
1743045421.655,-24.902,-31.250,-37.598,-18.066,0.000
1743045421.659,-26.367,-26.855,-42.480,-18.066,0.000
1743045421.663,-26.855,-24.902,-38.574,-18.555,0.000
1743045421.667,-24.414,-31.738,-37.109,-13.672,0.000
1743045421.671,-18.066,-37.109,-36.133,-8.301,0.000
1743045421.674,-24.414,-41.992,-23.926,-10.742,0.000
1743045421.678,-34.668,-45.410,-13.184,-22.461,0.000
1743045421.682,-33.691,-39.551,-9.277,-37.598,0.000
1743045421.686,-30.273,-34.180,-16.113,-41.992,0.000
1743045421.690,-36.133,-31.738,-22.949,-38.086,0.000
1743045421.694,-38.574,-20.020,-35.156,-25.391,0.000
1743045421.698,-19.531,-9.766,-45.898,-7.812,0.000
1743045421.702,-20.996,-24.414,-40.039,-13.184,0.000
1743045421.706,-35.645,-36.621,-29.297,-22.461,0.000
1743045421.710,-38.086,-23.926,-24.414,-24.902,0.000
1743045421.714,-36.621,-20.996,-29.785,-28.809,0.000
1743045421.717,-42.480,-31.250,-27.344,-27.832,0.000
1743045421.721,-41.504,-31.250,-29.297,-28.809,0.000
1743045421.725,-34.668,-25.879,-38.086,-31.738,0.000
1743045421.729,-35.156,-22.949,-16.113,-30.273,0.000
1743045421.733,-29.297,-22.949,-2.441,-27.344,0.000
1743045421.737,-34.668,-26.367,-20.996,-24.414,0.000
1743045421.741,-31.738,-21.484,-33.203,-23.926,0.000
1743045421.745,-21.484,-18.066,-33.691,-27.832,0.000
1743045421.749,-18.555,-17.578,-18.066,-30.762,0.000
1743045421.753,-20.996,-23.438,-21.973,-29.785,0.000
1743045421.757,-23.926,-29.297,-30.762,-32.227,0.000
1743045421.760,-25.879,-37.109,-28.809,-40.039,0.000
1743045421.764,-26.855,-36.621,-30.762,-38.086,0.000
1743045421.768,-20.996,-15.137,-30.273,-24.414,0.000
1743045421.772,-11.719,0.000,-20.508,-17.578,0.000
1743045421.776,-11.719,-9.766,-19.531,-20.996,0.000
1743045421.780,-9.277,-10.742,-37.109,-18.555,0.000
1743045421.784,-7.324,-11.719,-51.758,-14.160,0.000
1743045421.788,-11.230,-24.414,-50.293,-19.531,0.000
1743045421.792,-16.602,-33.691,-37.109,-30.762,0.000
1743045421.796,-34.668,-39.062,-30.762,-41.016,0.000
1743045421.799,-41.504,-39.551,-31.250,-42.480,0.000
1743045421.803,-43.457,-37.109,-22.461,-42.969,0.000
1743045421.807,-42.480,-25.879,-15.625,-38.086,0.000
1743045421.811,-27.344,-20.020,-25.879,-31.250,0.000
1743045421.815,-21.973,-22.461,-25.391,-21.973,0.000
1743045421.819,-19.043,-22.461,-28.320,-20.996,0.000
1743045421.823,-16.602,-25.879,-45.410,-27.832,0.000
1743045421.827,-26.367,-29.297,-39.551,-29.785,0.000
1743045421.831,-29.297,-21.973,-30.273,-24.902,0.000
1743045421.835,-20.020,-21.484,-40.527,-16.113,0.000
1743045421.839,-30.273,-31.250,-36.133,-24.414,0.000
1743045421.842,-31.738,-32.227,-22.461,-36.133,0.000
1743045421.846,-34.180,-31.250,-28.809,-34.180,0.000
1743045421.850,-49.316,-31.250,-22.949,-34.668,0.000
1743045421.854,-56.152,-32.227,-21.484,-38.086,0.000
1743045421.858,-50.293,-39.551,-25.879,-27.344,0.000
1743045421.862,-45.410,-32.715,-21.973,-26.855,0.000
1743045421.866,-47.363,-29.785,-28.809,-35.645,0.000
1743045421.870,-35.156,-31.250,-20.020,-25.879,0.000
1743045421.874,-30.273,-35.645,-8.301,-21.973,0.000
1743045421.878,-35.645,-36.621,-21.484,-26.367,0.000
1743045421.882,-34.180,-24.414,-35.645,-21.973,0.000
1743045421.886,-39.062,-23.438,-29.297,-23.438,0.000
1743045421.889,-42.969,-32.227,-15.137,-29.785,0.000
1743045421.893,-37.109,-27.832,-15.625,-24.414,0.000
1743045421.897,-41.016,-26.855,-20.996,-24.902,0.000
1743045421.901,-45.410,-26.855,-14.160,-33.691,0.000
1743045421.905,-45.898,-33.203,-17.090,-38.574,0.000
1743045421.909,-36.133,-26.855,-16.113,-28.320,0.000
1743045421.913,-28.320,-18.555,-14.648,-17.578,0.000
1743045421.917,-35.645,-28.320,-22.461,-21.484,0.000
1743045421.921,-27.344,-32.715,-26.367,-19.531,0.000
1743045421.925,-18.555,-22.949,-28.809,-6.348,0.000
1743045421.928,0.000,-20.996,0.000,0.000,0.000
1743045421.932,0.000,-36.621,0.000,0.000,0.000
1743045421.936,0.000,-39.551,0.000,0.000,0.000
1743045421.940,0.000,-35.156,0.000,0.000,0.000
1743045421.944,0.000,-29.297,0.000,0.000,0.000
1743045421.948,0.000,-24.414,0.000,0.000,0.000
1743045421.952,0.000,-25.879,0.000,0.000,0.000
1743045421.956,0.000,-28.320,0.000,0.000,0.000
1743045421.960,0.000,-29.297,0.000,0.000,0.000
1743045421.964,0.000,-30.762,0.000,0.000,0.000
1743045421.968,0.000,-31.738,0.000,0.000,0.000
1743045421.971,0.000,-38.086,0.000,0.000,0.000
1743045421.975,-21.973,-34.668,-19.531,-33.691,0.000
1743045421.979,-28.809,-22.949,-17.578,-25.391,0.000
1743045421.983,-39.551,-28.809,-19.531,-28.809,0.000
1743045421.987,-33.691,-31.250,-34.668,-33.203,0.000
1743045421.991,-27.344,-26.367,-33.203,-36.621,0.000
1743045421.995,-22.949,-24.902,-23.926,-44.922,0.000
1743045421.999,-24.414,-22.949,-25.879,-41.016,0.000
1743045422.003,-23.926,-27.344,-27.344,-25.879,0.000
1743045422.007,-19.043,-31.738,-24.902,-16.602,0.000
1743045422.010,-25.879,-29.297,-27.832,-21.973,0.000
1743045422.014,-34.668,-35.156,-29.297,-28.809,0.000
1743045422.018,-36.621,-23.438,-20.020,-21.973,0.000
1743045422.022,-23.926,-11.719,-11.719,-19.531,0.000
1743045422.026,-31.250,-17.578,-19.531,-24.902,0.000
1743045422.030,-25.879,-23.926,-25.879,-28.809,0.000
1743045422.034,-37.109,-29.785,-22.461,-27.832,0.000
1743045422.038,-46.387,-32.715,-28.320,-33.691,0.000
1743045422.042,-42.480,-33.203,-33.691,-45.898,0.000
1743045422.046,-38.574,-29.785,-28.320,-37.598,0.000
1743045422.050,-30.273,-30.762,-20.020,-26.367,0.000
1743045422.053,-19.043,-34.668,-20.020,-22.461,0.000
1743045422.057,-18.066,-31.250,-23.438,-10.742,0.000
1743045422.061,-30.273,-32.715,-41.016,-13.184,0.000
1743045422.065,-29.785,-29.785,-39.551,-21.484,0.000
1743045422.069,0.000,-25.391,-26.855,-30.273,0.000
1743045422.073,0.000,-29.785,-31.738,-39.062,0.000
1743045422.077,0.000,-32.227,-30.273,-41.992,0.000
1743045422.081,0.000,-36.133,-24.414,-39.062,0.000
1743045422.085,0.000,-40.039,-29.785,-36.133,0.000
1743045422.089,0.000,-42.969,-37.109,-43.457,0.000
1743045422.093,0.000,-43.945,-34.668,-46.387,0.000
1743045422.096,0.000,-45.410,-35.645,-39.551,0.000
1743045422.100,0.000,-36.133,-38.574,-38.574,0.000
1743045422.104,0.000,-37.109,-30.762,-38.574,0.000
1743045422.108,0.000,-44.922,-30.273,-22.949,0.000
1743045422.112,0.000,-45.410,-29.297,-1.465,0.000
1743045422.116,-25.879,-45.898,0.000,3.906,0.000
1743045422.120,-34.180,-42.969,0.000,-3.906,0.000
1743045422.124,-37.598,-41.016,0.000,-9.277,0.000
1743045422.128,-32.227,-35.645,0.000,-5.859,0.000
1743045422.132,-32.227,-27.832,0.000,8.301,0.000
1743045422.135,-42.969,-20.996,0.000,7.324,0.000
1743045422.139,-37.109,-23.438,0.000,-3.906,0.000
1743045422.143,-24.902,-24.902,0.000,-3.906,0.000
1743045422.147,-33.691,-37.109,0.000,-6.836,0.000
1743045422.151,-40.039,-51.758,0.000,-12.695,0.000
1743045422.155,-36.133,-45.410,0.000,-18.066,0.000
1743045422.159,-33.203,-33.691,0.000,-13.672,0.000
1743045422.163,-27.344,-23.438,-20.508,-8.301,0.000
1743045422.167,-26.367,-30.762,-19.531,-12.207,0.000
1743045422.171,-25.391,-32.715,-25.879,-2.930,0.000
1743045422.174,-22.461,-31.250,-30.762,-3.418,0.000
1743045422.178,-28.809,-34.668,-28.809,-19.531,0.000
1743045422.182,-21.484,-25.879,-9.766,-8.301,0.000
1743045422.186,-11.230,-17.090,7.324,4.883,0.000
1743045422.190,-21.973,-21.973,-6.836,-4.395,0.000
1743045422.194,-18.066,-31.738,-25.879,-0.488,0.000
1743045422.198,-5.371,-26.855,-28.809,-1.953,0.000
1743045422.202,-15.625,-30.762,-23.926,-14.648,0.000
1743045422.206,-24.414,-40.039,-24.414,-20.996,0.000
1743045422.210,-18.555,-31.738,-31.738,-15.625,0.000
1743045422.214,-22.949,-30.273,-41.504,-8.301,0.000
1743045422.217,-22.949,-25.879,-26.855,-5.371,0.000
1743045422.221,-9.766,-23.438,-4.883,5.371,0.000
1743045422.225,-15.137,-30.273,-12.207,1.465,0.000
1743045422.229,-18.555,-38.574,-24.414,-6.348,0.000
1743045422.233,-13.672,-39.062,-24.902,-7.324,0.000
1743045422.237,-20.020,-26.367,-18.555,-8.789,0.000
1743045422.241,-20.508,-17.090,-15.137,-4.395,0.000
1743045422.245,-19.531,-18.555,-14.648,-9.277,0.000
1743045422.249,-23.438,-21.484,-27.344,-21.484,0.000
1743045422.253,-25.879,-23.926,-30.273,-25.879,0.000
1743045422.257,-20.508,-22.949,0.000,-14.648,0.000
1743045422.260,-17.090,-12.695,0.000,-11.230,0.000
1743045422.264,-19.531,-22.949,0.000,-14.160,0.000
1743045422.268,-15.625,-27.344,0.000,-21.484,0.000
1743045422.272,-17.578,-12.207,0.000,-30.273,0.000
1743045422.276,-22.461,-9.277,0.000,-24.414,0.000
1743045422.280,-22.949,-25.879,0.000,-17.090,0.000
1743045422.284,-20.508,-29.297,0.000,-23.926,0.000
1743045422.288,-22.461,-14.160,0.000,-29.297,0.000
1743045422.292,-34.180,-19.043,0.000,-27.832,0.000
1743045422.296,-33.691,-30.273,0.000,-24.902,0.000
1743045422.299,-31.250,-29.785,0.000,-20.020,0.000
1743045422.303,-29.785,-20.020,-24.902,-27.344,0.000
1743045422.307,-20.020,-16.113,-34.180,-22.949,0.000
1743045422.311,-6.348,-19.531,-21.973,-5.371,0.000
1743045422.315,-6.836,-21.973,-21.973,-12.207,0.000
1743045422.319,-20.996,-25.879,-28.809,-29.297,0.000
1743045422.323,-24.414,-17.578,-18.066,-32.227,0.000
1743045422.327,-28.809,-21.973,-21.484,-39.062,0.000
1743045422.331,-31.250,-25.879,-20.508,-31.738,0.000
1743045422.335,-31.250,-24.902,-18.066,-26.855,0.000
1743045422.339,-35.156,-32.227,-35.156,-41.016,0.000
1743045422.342,-46.875,-36.133,-40.039,-45.898,0.000
1743045422.346,-49.316,-43.457,-32.227,-42.969,0.000
1743045422.350,-45.410,-35.645,-35.156,-38.086,0.000
1743045422.354,-41.016,-25.879,-22.461,-33.203,0.000
1743045422.358,-42.480,-32.227,-11.719,-35.645,0.000
1743045422.362,-47.852,-33.691,-27.832,-41.016,0.000
1743045422.366,-43.457,-25.879,-27.344,-47.852,0.000
1743045422.370,-39.551,-29.785,-21.484,-50.781,0.000
1743045422.374,-34.180,-26.367,-28.320,-44.922,0.000
1743045422.378,-26.855,-20.020,-27.832,-38.086,0.000
1743045422.382,-29.785,-23.926,-32.715,-43.457,0.000
1743045422.385,-37.109,-26.855,-34.668,-42.969,0.000
1743045422.389,-29.785,-24.902,-30.273,-36.621,0.000
1743045422.393,-34.180,-32.715,-34.668,-41.992,0.000
1743045422.397,-39.551,-36.133,-37.598,-39.551,0.000
1743045422.401,-36.621,-35.645,-35.645,-41.992,0.000
1743045422.405,-37.109,-30.762,-20.020,-43.457,0.000
1743045422.409,-38.574,-27.344,-9.766,-35.645,0.000
1743045422.413,-45.898,-35.645,-20.020,-30.273,0.000
1743045422.417,-38.574,-28.809,-25.391,-26.367,0.000
1743045422.421,-24.902,-20.020,-20.020,-20.996,0.000
1743045422.425,-35.156,-25.879,-21.973,-28.320,0.000
1743045422.428,-35.156,-33.691,-23.926,-37.109,0.000
1743045422.432,-29.785,-26.855,-28.809,-35.645,0.000
1743045422.436,-39.551,-27.344,-37.598,-33.203,0.000
1743045422.440,-41.992,-40.039,-41.016,-30.273,0.000
1743045422.444,-38.574,-36.621,-36.133,-29.785,0.000
1743045422.448,-33.691,-26.855,-23.438,-20.508,0.000
1743045422.452,-25.879,-21.484,-15.137,-10.254,0.000
1743045422.456,-28.809,-23.438,-17.090,-18.555,0.000
1743045422.460,-37.109,-26.855,-25.879,-30.273,0.000
1743045422.464,-40.527,-24.414,-36.133,-28.320,0.000
1743045422.467,-45.410,-25.391,-27.832,-23.438,0.000
1743045422.471,-44.922,-35.156,-15.625,-23.438,0.000
1743045422.475,-37.109,-35.156,-19.531,-18.555,0.000
1743045422.479,-38.086,-31.250,-22.949,-22.949,0.000
1743045422.483,-42.480,-31.250,-24.414,-32.227,0.000
1743045422.487,-37.109,-29.297,-26.367,-31.738,0.000
1743045422.491,0.000,-27.832,-37.598,-29.785,0.000
1743045422.495,0.000,-25.391,-42.969,-31.250,0.000
1743045422.499,0.000,-15.625,-35.156,-38.086,0.000
1743045422.503,0.000,-19.043,-34.180,-48.340,0.000
1743045422.507,0.000,-16.602,-20.508,-51.270,0.000
1743045422.510,0.000,-23.438,-6.836,-45.898,0.000
1743045422.514,0.000,-40.039,-12.695,-35.156,0.000
1743045422.518,0.000,-44.434,-26.855,-45.410,0.000
1743045422.522,0.000,-29.785,-31.250,-45.898,0.000
1743045422.526,0.000,-27.832,-33.203,-40.527,0.000
1743045422.530,0.000,-31.250,-34.668,-41.504,0.000
1743045422.534,0.000,-20.020,-26.855,-32.715,0.000
1743045422.538,-22.461,-19.043,-27.832,-32.715,0.000
1743045422.542,-21.973,-28.320,-37.598,-37.598,0.000
1743045422.546,-23.926,-38.574,-37.109,-27.832,0.000
1743045422.550,-28.809,-44.434,-30.762,-23.438,0.000
1743045422.553,-20.508,-40.527,-29.297,-19.043,0.000
1743045422.557,-20.508,-26.855,-16.113,-12.695,0.000
1743045422.561,-26.855,-16.113,-10.742,-9.766,0.000
1743045422.565,-24.414,-19.043,-8.301,-9.277,0.000
1743045422.569,-21.484,-20.508,-10.254,-17.578,0.000
1743045422.573,-17.090,-20.508,-19.531,-15.625,0.000
1743045422.577,-21.973,-30.762,-25.879,-10.742,0.000
1743045422.581,-30.273,-34.668,-35.156,-19.531,0.000
1743045422.585,-29.785,-36.621,-45.898,-21.973,0.000
1743045422.589,-34.668,-42.969,-41.016,-21.973,0.000
1743045422.592,-35.645,-36.133,-22.461,-23.438,0.000
1743045422.596,-26.367,-25.391,-4.395,-24.414,0.000
1743045422.600,-31.738,-33.691,-4.395,-25.391,0.000
1743045422.604,-39.551,-41.016,-23.926,-22.949,0.000
1743045422.608,-23.438,-31.738,-26.855,-18.066,0.000
1743045422.612,-29.785,-32.227,-22.461,-26.367,0.000
1743045422.616,-54.688,-38.086,-26.855,-40.039,0.000
1743045422.620,-44.922,-37.109,-26.855,-33.203,0.000
1743045422.624,-28.809,-26.367,-24.902,-22.949,0.000
1743045422.628,-23.438,-13.672,-26.367,-12.207,0.000
1743045422.632,-27.344,-19.043,-32.227,-16.602,0.000
1743045422.635,-32.715,-22.461,-40.527,-21.973,0.000
1743045422.639,-30.762,-15.625,-44.434,-20.996,0.000
1743045422.643,-32.227,-26.367,-25.391,-22.949,0.000
1743045422.647,-29.785,-38.574,-3.906,-15.625,0.000
1743045422.651,-37.109,-41.504,-13.184,-21.484,0.000
1743045422.655,-34.668,-40.527,-21.973,-29.785,0.000
1743045422.659,-27.344,-19.531,-22.461,-29.785,0.000
1743045422.663,-33.691,-9.277,-18.066,-28.809,0.000
1743045422.667,-28.320,-20.020,-13.184,-21.484,0.000
1743045422.671,-23.438,-23.438,-26.367,-17.090,0.000
1743045422.674,-23.438,-19.531,-41.016,-11.230,0.000
1743045422.678,-19.531,-20.508,-38.574,-11.719,0.000
1743045422.682,-19.531,-28.320,-32.715,-20.996,0.000
1743045422.686,-26.855,-30.762,-23.926,-19.043,0.000
1743045422.690,-33.691,-34.668,-17.090,-19.531,0.000
1743045422.694,-30.762,-36.621,-19.531,-20.020,0.000
1743045422.698,-29.785,-27.832,-28.809,-31.738,0.000
1743045422.702,-25.391,-18.066,-25.391,-29.785,0.000
1743045422.706,-28.809,-20.508,-21.973,-18.066,0.000
1743045422.710,-35.156,-41.016,-29.785,-23.438,0.000
1743045422.714,-30.762,-38.086,-23.926,-27.344,0.000
1743045422.717,-31.738,-20.508,-25.391,-28.320,0.000
1743045422.721,-28.809,-17.578,-28.809,-26.367,0.000
1743045422.725,-28.809,-17.578,0.000,-23.926,0.000
1743045422.729,-23.926,-20.508,0.000,-14.160,0.000
1743045422.733,-19.531,-28.320,0.000,-8.789,0.000
1743045422.737,-26.367,-33.691,0.000,-11.230,0.000
1743045422.741,-29.785,-22.949,0.000,-8.789,0.000
1743045422.745,-32.715,-17.578,0.000,-21.484,0.000
1743045422.749,-21.484,-14.648,0.000,-27.832,0.000
1743045422.753,-10.742,-18.555,0.000,-24.902,0.000
1743045422.757,-20.508,-34.180,0.000,-27.832,0.000
1743045422.760,-32.227,-26.367,0.000,-31.250,0.000
1743045422.764,-21.484,-7.812,0.000,-20.996,0.000
1743045422.768,-16.113,-18.555,0.000,-11.719,0.000
1743045422.772,-20.996,-31.738,-23.926,-18.555,0.000
1743045422.776,-24.414,-21.484,-11.719,-21.973,0.000
1743045422.780,-20.020,-8.789,-6.836,-16.602,0.000
1743045422.784,-25.879,-15.137,-19.531,-18.066,0.000
1743045422.788,-31.738,-25.391,-36.621,-21.973,0.000
1743045422.792,-25.879,-18.555,-41.016,-18.066,0.000
1743045422.796,-25.879,-16.113,-34.668,-13.184,0.000
1743045422.800,-22.949,-25.391,-17.090,-15.625,0.000
1743045422.803,-22.949,-23.438,-20.508,-18.066,0.000
1743045422.807,-22.461,-16.602,-29.297,-9.766,0.000
1743045422.811,-23.926,-25.879,-22.949,-9.277,0.000
1743045422.815,-29.297,-25.879,-14.648,-22.461,0.000
1743045422.819,0.000,-30.762,-12.207,-23.438,0.000
1743045422.823,0.000,-34.180,-21.973,-15.625,0.000
1743045422.827,0.000,-25.879,-22.949,-19.043,0.000
1743045422.831,0.000,-27.832,-17.090,-26.855,0.000
1743045422.835,0.000,-33.691,-25.391,-32.715,0.000
1743045422.839,0.000,-22.461,-32.227,-28.809,0.000
1743045422.842,0.000,-23.438,-28.809,-29.297,0.000
1743045422.846,0.000,-33.691,-21.484,-21.973,0.000
1743045422.850,0.000,-31.250,-17.578,-18.555,0.000
1743045422.854,0.000,-27.832,-32.715,-25.879,0.000
1743045422.858,0.000,-36.133,-41.992,-21.484,0.000
1743045422.862,0.000,-44.922,-32.715,-19.531,0.000
1743045422.866,-32.715,-40.527,-22.949,-20.020,0.000
1743045422.870,-34.668,-34.668,-14.648,-24.414,0.000
1743045422.874,-36.621,-30.762,-5.371,-18.066,0.000
1743045422.878,-40.039,-33.691,-3.906,-9.766,0.000
1743045422.882,-41.016,-50.781,-18.555,-12.207,0.000
1743045422.885,-32.227,-48.828,-29.297,-11.230,0.000
1743045422.889,-30.762,-25.391,-26.367,-10.254,0.000
1743045422.893,-33.203,-27.344,-32.227,-11.230,0.000
1743045422.897,-32.715,-39.551,-30.762,-19.043,0.000
1743045422.901,-39.551,-37.598,-17.578,-28.809,0.000
1743045422.905,-43.945,-28.809,-17.578,-31.250,0.000
1743045422.909,-37.598,-30.762,-27.344,-24.414,0.000
1743045422.913,-31.250,-28.809,0.000,-14.160,0.000
1743045422.917,-33.203,-30.273,0.000,-16.602,0.000
1743045422.921,-38.574,-30.273,0.000,-23.438,0.000
1743045422.925,-38.574,-34.668,0.000,-30.273,0.000
1743045422.928,-44.922,-45.898,0.000,-36.133,0.000
1743045422.932,-48.340,-45.898,0.000,-31.250,0.000
1743045422.936,-40.527,-36.621,0.000,-24.902,0.000
1743045422.940,-24.414,-13.184,0.000,-16.602,0.000
1743045422.944,-21.973,-7.324,0.000,-16.602,0.000
1743045422.948,-22.949,-20.020,0.000,-20.020,0.000
1743045422.952,-14.648,-24.902,0.000,-7.812,0.000
1743045422.956,-19.043,-34.180,0.000,-8.789,0.000
1743045422.960,0.000,-32.715,-16.602,-13.672,0.000
1743045422.964,0.000,-27.344,-10.254,-17.090,0.000
1743045422.968,0.000,-44.922,-18.555,-23.926,0.000
1743045422.971,0.000,-40.527,-18.555,-18.555,0.000
1743045422.975,0.000,-29.785,-13.184,-14.160,0.000
1743045422.979,0.000,-27.344,-12.207,-17.578,0.000
1743045422.983,0.000,-28.320,-23.438,-17.090,0.000
1743045422.987,0.000,-25.879,-37.598,-2.930,0.000
1743045422.991,0.000,-17.578,-34.668,-8.301,0.000
1743045422.995,0.000,-17.578,-29.785,-25.391,0.000
1743045422.999,0.000,-13.672,-30.762,-23.438,0.000
1743045423.003,0.000,-16.602,-25.391,-23.926,0.000
1743045423.007,-32.227,-29.297,-21.484,-37.109,0.000
1743045423.010,-36.133,-35.156,-20.508,-50.293,0.000
1743045423.014,-39.062,-36.621,-21.973,-49.316,0.000
1743045423.018,-32.715,-37.109,-20.996,-32.227,0.000
1743045423.022,-19.531,-32.715,-12.207,-17.578,0.000
1743045423.026,-23.926,-30.762,-19.043,-14.160,0.000
1743045423.030,-21.973,-20.020,-20.020,0.000,0.000
1743045423.034,-20.996,-20.508,-12.207,-9.277,0.000
1743045423.038,-20.020,-24.414,-16.113,-24.414,0.000
1743045423.042,-16.602,-15.625,-13.672,-16.113,0.000
1743045423.046,-21.973,-21.973,-18.555,-9.277,0.000
1743045423.050,-28.320,-30.762,-32.227,-7.812,0.000
1743045423.053,-29.785,-24.902,-25.391,-8.301,0.000
1743045423.057,-34.668,-25.391,-15.137,-13.672,0.000
1743045423.061,-39.062,-32.227,-12.695,-19.043,0.000
1743045423.065,-39.551,-28.320,-14.648,-30.273,0.000
1743045423.069,-41.504,-21.484,-14.160,-35.645,0.000
1743045423.073,-39.551,-20.508,-17.090,-33.203,0.000
1743045423.077,-35.156,-25.879,-18.555,-33.203,0.000
1743045423.081,-40.039,-26.855,-25.391,-29.297,0.000
1743045423.085,-46.875,-24.902,-35.645,-32.227,0.000
1743045423.089,-45.410,-27.344,-28.320,-39.551,0.000
1743045423.092,-41.992,-22.461,-24.902,-34.180,0.000
1743045423.096,-51.270,-20.996,-26.855,-40.527,0.000
1743045423.100,-58.594,-25.879,0.000,-54.688,0.000
1743045423.104,-64.941,-24.414,0.000,-61.523,0.000
1743045423.108,-82.520,-26.855,0.000,-68.359,0.000
1743045423.112,-96.191,-32.227,0.000,-75.684,0.000
1743045423.116,-97.656,-26.855,0.000,-77.148,0.000
1743045423.120,-109.863,-20.508,0.000,-86.426,0.000
1743045423.124,-136.230,-33.203,0.000,-111.328,0.000
1743045423.128,-147.949,-45.898,0.000,-129.395,0.000
1743045423.132,-145.508,-38.086,0.000,-132.324,0.000
1743045423.135,-150.879,-39.062,0.000,-143.555,0.000
1743045423.139,-148.926,-43.457,0.000,-146.484,0.000
1743045423.143,-143.066,-36.133,0.000,-146.484,0.000
1743045423.147,-152.832,-38.574,0.977,-156.250,0.000
1743045423.151,-161.621,-39.551,6.836,-159.180,0.000
1743045423.155,-150.391,-31.250,5.859,-154.785,0.000
1743045423.159,-141.113,-22.461,-3.418,-154.785,0.000
1743045423.163,-141.602,-17.090,-2.441,-150.391,0.000
1743045423.167,-138.672,-27.344,3.906,-141.602,0.000
1743045423.171,-127.441,-30.762,0.000,-121.582,0.000
1743045423.175,-105.957,-31.250,-3.906,-104.492,0.000
1743045423.178,-91.797,-31.250,-15.625,-94.238,0.000
1743045423.182,-83.008,-13.184,-12.695,-83.496,0.000
1743045423.186,-80.078,-14.160,-3.906,-78.613,0.000
1743045423.190,-70.801,-23.926,2.930,-79.590,0.000
1743045423.194,-52.734,-27.344,-4.883,-68.359,0.000
1743045423.198,-41.504,-34.180,-11.230,-45.410,0.000
1743045423.202,-24.902,-26.367,-10.742,-22.949,0.000
1743045423.206,-10.742,-15.625,-26.367,-9.766,0.000
1743045423.210,-10.254,-18.066,-30.273,-10.254,0.000
1743045423.214,-9.766,-20.996,-25.391,-12.207,0.000
1743045423.218,-4.395,-21.484,-30.273,-5.859,0.000
1743045423.221,8.789,-16.602,-26.855,3.418,0.000
1743045423.225,22.949,-13.184,-20.996,11.230,0.000
1743045423.229,25.391,-15.137,-17.578,18.555,0.000
1743045423.233,19.043,-17.578,-16.602,15.625,0.000
1743045423.237,11.719,-15.137,-24.902,17.090,0.000
1743045423.241,2.930,-20.508,-46.875,18.555,0.000
1743045423.245,1.953,-22.461,-50.293,12.695,0.000
1743045423.249,8.789,-22.461,-33.691,15.625,0.000
1743045423.253,11.230,-29.297,-29.785,27.344,0.000
1743045423.257,17.090,-36.621,-39.062,30.273,0.000
1743045423.260,15.137,-33.691,-41.016,21.484,0.000
1743045423.264,19.531,-19.043,-30.762,28.320,0.000
1743045423.268,10.254,-17.578,-34.668,26.855,0.000
1743045423.272,7.812,-21.484,-38.574,15.625,0.000
1743045423.276,8.301,-20.508,-29.785,17.090,0.000
1743045423.280,1.465,-20.996,-29.785,11.719,0.000
1743045423.284,2.930,-18.555,-40.527,7.812,0.000
1743045423.288,0.977,-16.602,-40.039,15.137,0.000
1743045423.292,-3.418,-20.020,-35.156,12.695,0.000
1743045423.296,6.348,-27.344,-33.203,18.555,0.000
1743045423.300,11.230,-27.344,-37.109,19.531,0.000
1743045423.303,1.465,-27.832,-44.922,5.371,0.000
1743045423.307,-2.930,-30.273,-34.668,-2.930,0.000
1743045423.311,2.930,-23.926,-18.066,-0.977,0.000
1743045423.315,-2.441,-30.273,-24.902,0.000,0.000
1743045423.319,-10.254,-35.645,-35.645,1.953,0.000
1743045423.323,-2.441,-25.879,-38.574,6.836,0.000
1743045423.327,0.000,-22.461,-37.109,12.695,0.000
1743045423.331,-3.418,-19.043,-28.320,10.742,0.000
1743045423.335,-1.465,-16.602,-22.461,-0.488,0.000
1743045423.339,-3.418,-22.949,-30.273,-5.859,0.000
1743045423.343,-8.301,-29.785,-36.621,-6.348,0.000
1743045423.346,-9.277,-35.156,-45.410,-4.395,0.000
1743045423.350,-1.465,-27.832,-40.527,3.418,0.000
1743045423.354,-0.488,-21.484,-19.531,6.836,0.000
1743045423.358,-1.465,-22.949,-7.324,4.395,0.000
1743045423.362,2.930,-19.531,-13.672,4.395,0.000
1743045423.366,2.441,-22.949,-29.785,3.906,0.000
1743045423.370,-11.230,-35.156,-45.898,3.906,0.000
1743045423.374,-3.906,-38.574,-43.457,14.160,0.000
1743045423.378,4.883,-35.645,-35.645,9.766,0.000
1743045423.382,-10.254,-27.344,-35.156,-7.812,0.000
1743045423.386,-14.648,-21.973,-30.273,-12.207,0.000
1743045423.389,-5.371,-23.926,-35.156,-1.465,0.000
1743045423.393,-9.277,-20.996,-39.062,0.977,0.000
1743045423.397,-13.672,-20.508,-27.344,-14.160,0.000
1743045423.401,-10.742,-22.949,-29.297,-20.020,0.000
1743045423.405,-17.090,-27.344,-45.410,-29.785,0.000
1743045423.409,-24.902,-23.438,-54.199,-37.598,0.000
1743045423.413,-12.207,-16.602,-49.316,-19.531,0.000
1743045423.417,-13.184,-25.879,-48.340,-15.625,0.000
1743045423.421,-14.160,-26.367,-37.598,-15.137,0.000
1743045423.425,-10.742,-13.184,-32.715,-12.207,0.000
1743045423.428,-12.207,-9.766,-33.203,-17.090,0.000
1743045423.432,-15.625,-18.066,-29.297,-22.949,0.000
1743045423.436,-22.461,-24.414,-39.551,-29.785,0.000
1743045423.440,-19.043,-29.785,-44.434,-19.531,0.000
1743045423.444,-17.578,-30.273,-38.086,-4.395,0.000
1743045423.448,-7.812,-16.602,-36.133,2.930,0.000
1743045423.452,-7.812,-25.879,-39.551,-6.348,0.000
1743045423.456,-11.719,-30.762,-38.574,-20.020,0.000
1743045423.460,-16.602,-29.297,-31.250,-28.809,0.000
1743045423.464,-23.438,-26.367,-26.367,-26.855,0.000
1743045423.468,-20.020,-19.043,-23.438,-12.695,0.000
1743045423.471,-23.926,-20.996,-22.461,-12.695,0.000
1743045423.475,0.000,-26.855,-40.039,-26.855,0.000
1743045423.479,0.000,-29.297,-51.270,-33.203,0.000
1743045423.483,0.000,-15.625,-30.273,-33.203,0.000
1743045423.487,0.000,-12.207,-26.367,-29.297,0.000
1743045423.491,0.000,-19.531,-35.645,-15.625,0.000
1743045423.495,0.000,-13.184,-36.621,-5.859,0.000
1743045423.499,0.000,-13.184,-51.270,-12.207,0.000
1743045423.503,0.000,-25.391,-42.969,-19.043,0.000
1743045423.507,0.000,-30.273,-31.738,-30.273,0.000
1743045423.511,0.000,-32.227,-36.621,-31.738,0.000
1743045423.514,0.000,-20.020,-34.668,-20.508,0.000
1743045423.518,0.000,-9.766,-32.227,-20.996,0.000
1743045423.522,-27.344,-16.602,-32.227,-25.879,0.000
1743045423.526,-12.695,-20.508,-34.668,-12.207,0.000
1743045423.530,-0.488,-20.020,-36.133,-3.418,0.000
1743045423.534,-9.766,-22.461,-48.828,-7.324,0.000
1743045423.538,-10.742,-20.020,-48.340,-7.324,0.000
1743045423.542,-13.184,-20.020,-29.297,-10.254,0.000
1743045423.546,-21.973,-27.832,-17.090,-19.531,0.000
1743045423.550,-21.484,-29.297,-18.066,-23.926,0.000
1743045423.553,-16.602,-23.438,-20.508,-13.672,0.000
1743045423.557,-22.461,-35.645,-31.738,-19.531,0.000
1743045423.561,-26.367,-56.641,-39.551,-35.156,0.000
1743045423.565,-23.926,-49.316,-27.344,-30.762,0.000
1743045423.569,-20.996,-30.762,0.000,-25.391,0.000
1743045423.573,-24.902,-32.227,0.000,-24.414,0.000
1743045423.577,-28.809,-39.551,0.000,-20.508,0.000
1743045423.581,-22.461,-33.203,0.000,-18.555,0.000
1743045423.585,-19.531,-23.926,0.000,-22.461,0.000
1743045423.589,-23.438,-18.555,0.000,-29.297,0.000
1743045423.593,-21.484,-19.043,0.000,-31.250,0.000
1743045423.596,-17.578,-22.461,0.000,-23.926,0.000
1743045423.600,-25.391,-28.809,0.000,-27.344,0.000
1743045423.604,-39.062,-34.180,0.000,-37.109,0.000
1743045423.608,-40.527,-35.645,0.000,-37.598,0.000
1743045423.612,-35.645,-35.156,0.000,-34.180,0.000
1743045423.616,-40.039,-39.062,-28.809,-34.180,0.000
1743045423.620,-44.922,-48.828,-36.133,-35.645,0.000
1743045423.624,-39.551,-41.504,-46.387,-37.109,0.000
1743045423.628,-27.832,-32.227,-31.738,-27.344,0.000
1743045423.632,-31.250,-40.039,-31.250,-21.484,0.000
1743045423.636,-40.527,-37.598,-42.969,-30.273,0.000
1743045423.639,-32.227,-26.367,-40.527,-22.949,0.000
1743045423.643,-20.020,-17.578,-23.926,-13.184,0.000
1743045423.647,-18.066,-10.254,-15.137,-15.625,0.000
1743045423.651,-23.438,-12.207,-23.926,-22.949,0.000
1743045423.655,-28.320,-17.578,-21.484,-10.742,0.000
1743045423.659,-23.926,-12.695,-23.438,4.395,0.000
1743045423.663,-23.438,-14.648,-32.715,-13.184,0.000
1743045423.667,-27.832,-25.391,-25.879,-27.344,0.000
1743045423.671,-25.391,-32.227,-22.461,-20.996,0.000
1743045423.675,-21.973,-27.832,-32.715,-17.090,0.000
1743045423.678,-29.297,-24.902,-31.250,-22.949,0.000
1743045423.682,-27.344,-27.832,-28.320,-18.555,0.000
1743045423.686,-17.578,-25.391,-30.273,-12.695,0.000
1743045423.690,-9.766,-28.809,-32.715,-9.766,0.000
1743045423.694,-12.207,-39.062,-31.738,-10.742,0.000
1743045423.698,-19.043,-32.715,-26.855,-16.113,0.000
1743045423.702,-11.230,-8.301,-15.625,-9.277,0.000
1743045423.706,-10.742,-1.953,-12.207,-5.371,0.000
1743045423.710,-28.809,-16.602,-28.809,-13.672,0.000
1743045423.714,-35.156,-24.414,-35.156,-27.832,0.000
1743045423.718,-32.227,-23.926,-24.414,-30.762,0.000
1743045423.721,-25.391,-16.602,-24.414,-19.531,0.000
1743045423.725,-19.531,-11.230,-37.109,-14.160,0.000
1743045423.729,-23.438,-16.602,-34.180,-18.555,0.000
1743045423.733,-23.438,-25.879,-18.066,-20.508,0.000
1743045423.737,-19.531,-36.133,-4.395,-8.789,0.000
1743045423.741,-21.484,-38.086,-5.859,-0.977,0.000
1743045423.745,-18.555,-31.738,-15.137,-8.301,0.000
1743045423.749,-23.438,-25.391,-15.625,-17.578,0.000
1743045423.753,-33.691,-38.086,-21.973,-25.391,0.000
1743045423.757,-27.344,-41.992,-25.879,-20.508,0.000
1743045423.761,-27.832,-22.949,-20.020,-18.555,0.000
1743045423.764,-29.297,-8.301,-18.066,-22.949,0.000
1743045423.768,-31.738,-11.719,-31.738,-28.320,0.000
1743045423.772,-28.809,-14.648,-24.414,-24.902,0.000
1743045423.776,-28.809,-18.555,-9.277,-28.809,0.000
1743045423.780,-35.156,-22.461,-9.277,-35.156,0.000
1743045423.784,-27.832,-20.020,-14.648,-30.762,0.000
1743045423.788,-25.391,-19.043,-37.598,-28.320,0.000
1743045423.792,-24.414,-23.926,-39.551,-16.113,0.000
1743045423.796,-28.320,-32.715,-23.438,-17.090,0.000
1743045423.800,-31.250,-41.504,-23.438,-24.414,0.000
1743045423.804,-29.297,-38.086,-26.367,-33.203,0.000
1743045423.807,-29.297,-34.668,-23.438,-28.320,0.000
1743045423.811,-27.344,-35.645,-15.625,-15.625,0.000
1743045423.815,-30.273,-39.062,-27.344,-24.414,0.000
1743045423.819,-30.273,-33.691,-24.414,-20.508,0.000
1743045423.823,-28.320,-19.043,-16.113,-19.043,0.000
1743045423.827,-24.414,-13.184,-25.391,-24.414,0.000
1743045423.831,-19.531,-11.230,-41.016,-25.391,0.000
1743045423.835,-22.461,-17.090,-40.039,-21.484,0.000
1743045423.839,-31.250,-27.832,-19.531,-12.207,0.000
1743045423.843,-32.227,-30.273,-3.418,-17.578,0.000
1743045423.846,-32.715,-35.156,-11.719,-19.531,0.000
1743045423.850,0.000,-35.645,0.000,-22.461,0.000
1743045423.854,0.000,-17.090,0.000,-21.973,0.000
1743045423.858,0.000,-12.207,0.000,-17.578,0.000
1743045423.862,0.000,-25.391,0.000,-18.555,0.000
1743045423.866,0.000,-20.508,0.000,-12.207,0.000
1743045423.870,0.000,-21.484,0.000,-10.254,0.000
1743045423.874,0.000,-23.438,0.000,-18.555,0.000
1743045423.878,0.000,-20.508,0.000,-27.344,0.000
1743045423.882,0.000,-38.086,0.000,-31.250,0.000
1743045423.886,0.000,-52.734,0.000,-40.527,0.000
1743045423.889,0.000,-43.945,0.000,-41.992,0.000
1743045423.893,0.000,-40.039,0.000,-44.434,0.000
1743045423.897,-39.062,-39.551,-25.879,-43.457,0.000
1743045423.901,-25.879,-31.250,-29.297,-41.504,0.000
1743045423.905,-23.926,-29.297,-31.250,-30.762,0.000
1743045423.909,-32.227,-31.738,-30.762,-18.555,0.000
1743045423.913,-23.926,-36.133,-22.949,-19.531,0.000
1743045423.917,-26.367,-36.621,-20.508,-22.461,0.000
1743045423.921,-35.645,-30.762,-37.109,-24.414,0.000
1743045423.925,-36.621,-29.297,-48.340,-29.785,0.000
1743045423.928,-39.062,-36.621,-31.738,-24.414,0.000
1743045423.932,-46.875,-38.086,-20.996,-25.391,0.000
1743045423.936,-44.922,-30.762,-31.250,-29.297,0.000
1743045423.940,-43.945,-29.297,-43.457,-28.320,0.000
1743045423.944,-33.691,-29.785,-29.297,-28.809,0.000
1743045423.948,-30.762,-35.156,-32.227,-27.832,0.000
1743045423.952,-28.320,-28.809,-35.645,-27.344,0.000
1743045423.956,-33.203,-25.879,-36.621,-37.109,0.000
1743045423.960,-30.273,-27.832,-34.180,-36.621,0.000
1743045423.964,-23.438,-20.020,-23.438,-21.484,0.000
1743045423.968,-20.508,-25.391,-16.602,-21.484,0.000
1743045423.971,-20.508,-34.668,-21.484,-22.461,0.000
1743045423.975,-30.273,-30.273,-37.109,-31.250,0.000
1743045423.979,-26.855,-25.879,-44.434,-25.879,0.000
1743045423.983,-26.367,-24.902,-38.574,-20.020,0.000
1743045423.987,-35.645,-28.809,-28.320,-35.645,0.000
1743045423.991,-30.762,-38.086,-21.973,-37.598,0.000
1743045423.995,-23.438,-44.922,-18.066,-32.715,0.000
1743045423.999,-28.320,-41.992,-28.320,-33.203,0.000
1743045424.003,-24.902,-24.902,-34.668,-31.738,0.000
1743045424.007,-17.090,-15.625,-26.855,-27.832,0.000
1743045424.011,-18.066,-14.160,-29.785,-24.414,0.000
1743045424.014,-28.320,-20.996,-29.785,-28.320,0.000
1743045424.018,-31.738,-27.832,-21.973,-21.973,0.000
1743045424.022,-28.320,-25.879,-34.668,-18.066,0.000
1743045424.026,-31.738,-22.461,-45.898,-24.414,0.000
1743045424.030,-28.809,-23.438,-44.922,-20.996,0.000
1743045424.034,-25.391,-25.879,-37.598,-15.625,0.000
1743045424.038,-27.832,-32.227,-30.762,-26.855,0.000
1743045424.042,-34.668,-40.039,-22.461,-31.738,0.000
1743045424.046,-33.691,-39.551,-26.855,-24.902,0.000
1743045424.050,-20.996,-29.785,-28.320,-20.020,0.000
1743045424.053,-18.555,-21.484,-19.531,-20.020,0.000
1743045424.057,-34.668,-16.602,-22.461,-32.227,0.000
1743045424.061,-49.805,-18.066,-33.691,-40.039,0.000
1743045424.065,-38.574,-22.461,-44.922,-32.715,0.000
1743045424.069,-36.621,-26.367,-42.969,-32.715,0.000
1743045424.073,-47.363,-31.738,-30.762,-37.109,0.000
1743045424.077,-33.203,-30.273,-18.555,-28.320,0.000
1743045424.081,-25.879,-30.762,-25.391,-21.973,0.000
1743045424.085,0.000,-41.016,-37.109,-34.668,0.000
1743045424.089,0.000,-40.039,-31.738,-39.062,0.000
1743045424.093,0.000,-40.527,-25.391,-29.785,0.000
1743045424.096,0.000,-33.203,-14.160,-23.438,0.000
1743045424.100,0.000,-28.320,-14.648,-10.254,0.000
1743045424.104,0.000,-32.715,-28.809,-12.695,0.000
1743045424.108,0.000,-32.227,-28.320,-25.391,0.000
1743045424.112,0.000,-26.855,-26.367,-26.855,0.000
1743045424.116,0.000,-24.414,-28.809,-17.090,0.000
1743045424.120,0.000,-24.414,-26.855,-11.719,0.000
1743045424.124,0.000,-28.809,-26.367,-15.137,0.000
1743045424.128,0.000,-28.320,-25.391,-8.789,0.000
1743045424.132,-20.996,-19.531,-21.973,-8.789,0.000
1743045424.136,-21.484,-16.602,-18.066,-10.254,0.000
1743045424.139,-13.184,-19.531,-31.250,-3.906,0.000
1743045424.143,-12.207,-23.438,-29.297,-3.906,0.000
1743045424.147,-20.020,-25.391,-15.137,-13.184,0.000
1743045424.151,-32.227,-28.320,-16.113,-29.297,0.000
1743045424.155,-35.645,-37.598,-32.715,-27.832,0.000
1743045424.159,-27.832,-31.250,-35.645,-19.531,0.000
1743045424.163,-21.484,-16.602,-21.484,-17.578,0.000
1743045424.167,-30.273,-26.855,-27.832,-29.785,0.000
1743045424.171,-41.504,-32.227,-35.645,-41.016,0.000
1743045424.175,-34.668,-28.320,-33.691,-40.527,0.000
1743045424.178,-38.086,-35.156,-33.203,-33.203,0.000
1743045424.182,-31.250,-30.273,-30.762,-15.625,0.000
1743045424.186,-21.484,-27.344,-37.109,-10.254,0.000
1743045424.190,-25.391,-36.133,-41.992,-18.555,0.000
1743045424.194,-22.949,-35.156,-33.691,-16.113,0.000
1743045424.198,-18.066,-25.879,-20.020,-8.301,0.000
1743045424.202,-22.461,-27.344,-23.438,-10.254,0.000
1743045424.206,-28.809,-29.785,-32.227,-16.602,0.000
1743045424.210,-24.414,-24.902,-26.367,-15.625,0.000
1743045424.214,-19.043,-18.555,-31.250,-18.066,0.000
1743045424.218,-12.207,-11.230,-31.250,-10.742,0.000
1743045424.221,-11.719,-31.738,-34.180,-10.254,0.000
1743045424.225,-36.133,-54.688,-36.621,-25.879,0.000
1743045424.229,-47.363,-42.480,-27.832,-29.297,0.000
1743045424.233,-31.738,-24.414,-20.020,-18.066,0.000
1743045424.237,-39.062,-30.273,-18.066,-22.949,0.000
1743045424.241,-53.711,-43.457,-19.531,-35.645,0.000
1743045424.245,-55.176,-42.480,-27.344,-42.480,0.000
1743045424.249,-51.758,-41.504,-32.715,-42.480,0.000
1743045424.253,-53.223,-52.734,-36.133,-46.387,0.000
1743045424.257,-52.246,-56.641,-33.691,-41.992,0.000
1743045424.261,-41.016,-39.551,-18.555,-28.809,0.000
1743045424.264,-45.898,-39.551,-15.625,-33.203,0.000
1743045424.268,-42.969,-53.223,-14.648,-33.691,0.000
1743045424.272,-32.715,-42.969,-9.766,-24.414,0.000
1743045424.276,-20.996,-26.855,-13.184,-13.184,0.000
1743045424.280,-20.996,-28.320,-10.254,-9.277,0.000
1743045424.284,-31.250,-43.457,-10.254,-16.602,0.000
1743045424.288,-45.410,-57.617,-27.832,-22.461,0.000
1743045424.292,-49.805,-53.711,-37.598,-28.320,0.000
1743045424.296,-50.293,-44.434,-26.855,-29.785,0.000
1743045424.300,-45.898,-35.156,-24.902,-24.902,0.000
1743045424.303,-47.852,-29.785,-36.621,-26.855,0.000
1743045424.307,-52.246,-36.133,-27.832,-36.621,0.000
1743045424.311,-47.852,-40.039,-17.090,-35.156,0.000
1743045424.315,-41.016,-32.715,-14.648,-20.996,0.000
1743045424.319,-38.574,-33.691,0.000,-17.578,0.000
1743045424.323,-42.480,-36.133,0.000,-24.414,0.000
1743045424.327,-43.457,-31.738,0.000,-24.414,0.000
1743045424.331,-53.223,-39.551,0.000,-24.414,0.000
1743045424.335,-62.500,-39.551,0.000,-35.156,0.000
1743045424.339,-58.105,-36.621,0.000,-41.992,0.000
1743045424.343,-52.734,-39.062,0.000,-40.527,0.000
1743045424.346,-54.688,-45.898,0.000,-41.992,0.000
1743045424.350,-50.293,-49.805,0.000,-41.992,0.000
1743045424.354,-32.227,-34.668,0.000,-30.762,0.000
1743045424.358,-32.227,-21.484,0.000,-28.809,0.000
1743045424.362,-29.785,-23.926,0.000,-27.832,0.000
1743045424.366,-28.320,-41.504,-31.250,-26.855,0.000
1743045424.370,-25.391,-37.598,-28.320,-18.555,0.000
1743045424.374,-25.391,-32.715,-28.809,-16.113,0.000
1743045424.378,-30.762,-35.645,-32.715,-23.926,0.000
1743045424.382,-33.203,-31.250,-28.809,-25.391,0.000
1743045424.386,-35.156,-34.180,-23.438,-25.391,0.000
1743045424.389,-33.203,-34.180,-20.020,-27.344,0.000
1743045424.393,-33.691,-30.762,-21.973,-18.066,0.000
1743045424.397,-37.109,-31.738,-29.785,-3.906,0.000
1743045424.401,-36.621,-38.574,-17.090,-3.418,0.000
1743045424.405,-34.180,-41.992,-7.324,-15.137,0.000
1743045424.409,-38.086,-39.551,-18.066,-15.137,0.000
1743045424.413,-32.715,-35.645,-21.484,-8.301,0.000
1743045424.417,-34.668,-40.039,-30.273,-11.230,0.000
1743045424.421,-37.598,-33.691,-27.832,-6.348,0.000
1743045424.425,-41.016,-30.273,-21.973,-14.160,0.000
1743045424.428,-48.828,-31.738,-25.391,-33.203,0.000
1743045424.432,-53.223,-26.855,-23.438,-30.762,0.000
1743045424.436,-52.734,-37.109,-22.461,-25.391,0.000
1743045424.440,-54.688,-45.410,-27.344,-36.621,0.000
1743045424.444,-46.875,-38.086,-26.367,-30.762,0.000
1743045424.448,-39.551,-37.598,-20.020,-20.996,0.000
1743045424.452,-39.062,-33.203,-29.785,-22.461,0.000
1743045424.456,-32.227,-22.461,-34.180,-15.625,0.000
1743045424.460,-30.273,-36.133,-24.902,-5.859,0.000
1743045424.464,-15.137,-45.898,-20.508,2.930,0.000
1743045424.468,-17.578,-36.621,-30.762,-12.207,0.000
1743045424.471,-30.273,-27.832,-39.062,-34.668,0.000
1743045424.475,-31.738,-25.879,-41.992,-40.527,0.000
1743045424.479,-38.574,-29.785,-44.922,-47.363,0.000
1743045424.483,-29.297,-25.391,-39.062,-39.062,0.000
1743045424.487,-36.621,-11.719,-31.250,-42.969,0.000
1743045424.491,-46.387,-9.277,-35.156,-49.316,0.000
1743045424.495,-32.715,-18.066,-57.129,-40.039,0.000
1743045424.499,-40.039,-18.555,-50.293,-41.016,0.000
1743045424.503,-58.594,-16.113,-19.531,-56.641,0.000
1743045424.507,-53.711,-21.973,-6.348,-57.617,0.000
1743045424.511,-43.945,-29.297,-19.531,-53.223,0.000
1743045424.514,-35.645,-32.227,-28.320,-42.969,0.000
1743045424.518,-31.250,-37.109,-30.273,-27.832,0.000
1743045424.522,-26.367,-32.227,-29.297,-25.391,0.000
1743045424.526,-27.832,-20.020,-31.250,-25.879,0.000
1743045424.530,-30.762,-16.602,-32.715,-33.203,0.000
1743045424.534,-24.902,-10.742,-25.391,-31.250,0.000
1743045424.538,-27.344,-17.578,-33.203,-30.273,0.000
1743045424.542,-34.180,-26.855,-41.992,-38.574,0.000
1743045424.546,-25.391,-14.648,-29.297,-20.020,0.000
1743045424.550,-26.855,-16.602,-20.020,-11.230,0.000
1743045424.554,-37.109,-30.762,-32.227,-28.320,0.000
1743045424.557,-35.156,-31.250,-32.715,-36.133,0.000
1743045424.561,-27.832,-23.438,-29.297,-32.227,0.000
1743045424.565,-13.672,-21.484,-24.414,-23.926,0.000
1743045424.569,1.465,-18.066,-21.484,-15.137,0.000
1743045424.573,-4.883,-13.672,-27.832,-14.648,0.000
1743045424.577,-9.766,-17.578,-22.949,-12.207,0.000
1743045424.581,-6.348,-35.156,-30.762,-13.184,0.000
1743045424.585,-22.461,-38.086,-35.156,-23.438,0.000
1743045424.589,-30.762,-23.926,-22.461,-21.973,0.000
1743045424.593,-15.137,-26.855,-6.836,-14.648,0.000
1743045424.596,-15.137,-35.156,-16.113,-20.996,0.000
1743045424.600,-25.879,-31.738,-38.086,-27.344,0.000
1743045424.604,-31.250,-29.785,-38.574,-29.785,0.000
1743045424.608,-38.086,-29.297,-38.086,-33.691,0.000
1743045424.612,-39.551,-29.785,-53.711,-38.086,0.000
1743045424.616,-34.180,-32.715,-49.316,-39.551,0.000
1743045424.620,-33.203,-29.785,-35.645,-36.621,0.000
1743045424.624,-37.598,-31.738,-35.645,-36.133,0.000
1743045424.628,-47.363,-34.180,-28.809,-44.434,0.000
1743045424.632,-53.711,-41.504,-26.367,-46.875,0.000
1743045424.636,-47.852,-41.016,-32.715,-41.016,0.000
1743045424.639,-37.598,-31.250,-29.785,-35.645,0.000
1743045424.643,-37.598,-30.762,-28.809,-35.156,0.000
1743045424.647,-38.086,-32.715,-35.156,-36.621,0.000
1743045424.651,-37.109,-31.250,-42.480,-34.180,0.000
1743045424.655,-42.969,-36.621,-45.410,-35.645,0.000
1743045424.659,-31.738,-31.738,-42.969,-17.090,0.000
1743045424.663,-20.020,-21.484,-38.086,-13.184,0.000
1743045424.667,-24.414,-15.625,-21.973,-29.785,0.000
1743045424.671,-26.855,-21.484,-15.625,-29.785,0.000
1743045424.675,-28.320,-38.086,-17.578,-30.762,0.000
1743045424.679,-27.832,-46.875,-24.414,-29.785,0.000
1743045424.682,-24.902,-34.180,-27.344,-20.996,0.000
1743045424.686,-21.973,-26.367,-24.902,-11.719,0.000
1743045424.690,-25.391,-29.785,-39.551,-9.766,0.000
1743045424.694,-24.902,-33.203,-36.621,-13.672,0.000
1743045424.698,-15.137,-30.762,-33.691,-17.578,0.000
1743045424.702,-16.602,-26.367,-34.668,-28.809,0.000
1743045424.706,-28.320,-27.832,-28.809,-33.203,0.000
1743045424.710,-51.270,-39.551,-36.621,-43.457,0.000
1743045424.714,-47.852,-39.551,-32.715,-41.992,0.000
1743045424.718,-41.992,-23.926,-31.250,-36.621,0.000
1743045424.721,-40.527,-12.695,-24.902,-34.668,0.000
1743045424.725,-28.320,-7.812,-16.113,-17.578,0.000
1743045424.729,-21.973,-18.555,-29.297,-2.441,0.000
1743045424.733,-34.668,-30.273,-37.109,-20.996,0.000
1743045424.737,-54.199,-39.062,-37.109,-55.176,0.000
1743045424.741,-50.781,-39.551,-38.086,-55.664,0.000
1743045424.745,-42.480,-37.598,-41.016,-41.992,0.000
1743045424.749,-43.457,-33.691,-38.574,-35.156,0.000
1743045424.753,-37.109,-23.438,-29.297,-30.273,0.000
1743045424.757,-25.391,-13.672,-20.996,-30.273,0.000
1743045424.761,-29.785,-12.695,-17.090,-30.762,0.000
1743045424.764,-37.598,-19.043,-20.020,-27.344,0.000
1743045424.768,-33.203,-20.020,-24.414,-26.855,0.000
1743045424.772,-23.926,-22.949,-36.133,-25.879,0.000
1743045424.776,-20.020,-30.762,-58.105,-21.973,0.000
1743045424.780,-24.414,-32.227,-55.664,-27.344,0.000
1743045424.784,-24.414,-20.996,-30.273,-30.762,0.000
1743045424.788,-26.855,-29.785,-23.926,-25.879,0.000
1743045424.792,-33.203,-42.969,-33.691,-27.832,0.000
1743045424.796,-25.391,-31.250,-28.809,-28.809,0.000
1743045424.800,-19.043,-20.020,-20.996,-20.020,0.000
1743045424.804,-20.508,-20.020,-22.949,-16.602,0.000
1743045424.807,-19.043,-28.809,-21.484,-18.066,0.000
1743045424.811,-20.020,-30.762,-21.484,-21.484,0.000
1743045424.815,-21.973,-32.227,-41.504,-25.879,0.000
1743045424.819,-15.625,-30.273,-45.898,-16.113,0.000
1743045424.823,-12.207,-16.602,-36.133,-8.301,0.000
1743045424.827,-31.738,-19.043,-39.062,-28.809,0.000
1743045424.831,-44.434,-33.203,-35.645,-49.805,0.000
1743045424.835,-33.203,-34.668,-23.926,-45.410,0.000
1743045424.839,-36.621,-32.227,-21.484,-36.133,0.000
1743045424.843,-43.457,-25.879,-38.574,-34.180,0.000
1743045424.846,-40.039,-16.602,-32.227,-28.320,0.000
1743045424.850,-39.062,-29.785,-23.438,-25.391,0.000
1743045424.854,-38.574,-34.668,-39.551,-29.297,0.000
1743045424.858,-34.180,-30.762,-38.086,-24.902,0.000
1743045424.862,-26.367,-30.762,-18.555,-10.742,0.000
1743045424.866,-29.297,-32.227,-21.484,-16.602,0.000
1743045424.870,-35.645,-37.109,-25.391,-20.508,0.000
1743045424.874,-29.297,-33.203,-20.020,-19.531,0.000
1743045424.878,-24.414,-30.762,-19.531,-22.461,0.000
1743045424.882,0.000,-38.086,-25.879,-17.090,0.000
1743045424.886,0.000,-36.133,-38.574,-7.812,0.000
1743045424.889,0.000,-24.414,-29.297,-8.789,0.000
1743045424.893,0.000,-26.855,-19.531,-1.953,0.000
1743045424.897,0.000,-37.598,-26.367,4.883,0.000
1743045424.901,0.000,-39.062,-32.227,0.488,0.000
1743045424.905,0.000,-42.480,-35.645,-11.719,0.000
1743045424.909,0.000,-42.969,-22.949,-14.160,0.000
1743045424.913,0.000,-25.879,-12.695,-16.113,0.000
1743045424.917,0.000,-25.879,-28.320,-38.086,0.000
1743045424.921,0.000,-31.250,-35.645,-42.969,0.000
1743045424.925,0.000,-31.738,-24.902,-30.762,0.000
1743045424.929,-14.160,-26.367,-25.391,-18.555,0.000
1743045424.932,-15.625,-25.391,-32.715,-13.672,0.000
1743045424.936,-18.066,-23.926,-38.574,-15.625,0.000
1743045424.940,-12.695,-11.230,-40.527,-13.672,0.000
1743045424.944,-23.926,-26.367,-40.039,-10.254,0.000
1743045424.948,-22.949,-41.016,-51.270,0.000,0.000
1743045424.952,-6.836,-21.484,-47.852,9.277,0.000
1743045424.956,-13.672,-13.184,-33.203,0.000,0.000
1743045424.960,-24.414,-25.879,-30.762,-8.301,0.000
1743045424.964,-20.996,-27.344,-26.367,-11.719,0.000
1743045424.968,-17.578,-22.461,-21.484,-8.301,0.000
1743045424.971,-13.184,-18.555,-14.160,1.953,0.000
1743045424.975,-17.090,-21.973,-14.648,-6.348,0.000
1743045424.979,-27.832,-32.715,-16.113,-13.672,0.000
1743045424.983,-25.879,-39.062,-11.719,-4.883,0.000
1743045424.987,-23.926,-36.621,-19.043,-5.859,0.000
1743045424.991,-18.066,-15.625,-24.414,-9.277,0.000
1743045424.995,-16.113,-3.418,-35.645,-13.184,0.000
1743045424.999,-18.066,-15.137,-30.762,-14.648,0.000
1743045425.003,-18.555,-24.414,-21.484,-22.461,0.000
1743045425.007,-20.508,-28.320,-35.156,-31.250,0.000
1743045425.011,-17.578,-29.297,-35.645,-29.785,0.000
1743045425.014,-15.625,-33.203,-31.250,-26.367,0.000
1743045425.018,-21.484,-30.762,-29.785,-27.832,0.000
1743045425.022,-25.879,-20.508,-37.109,-27.344,0.000
1743045425.026,-27.832,-21.484,-37.109,-31.738,0.000
1743045425.030,-22.949,-21.484,-22.949,-31.250,0.000
1743045425.034,-18.555,-17.090,-27.344,-25.391,0.000
1743045425.038,-9.766,-14.160,-19.043,-28.809,0.000
1743045425.042,-13.184,-22.461,-18.066,-32.715,0.000
1743045425.046,-18.555,-25.391,-31.738,-36.133,0.000
1743045425.050,-18.555,-20.996,-50.293,-35.645,0.000
1743045425.054,-18.066,-25.391,-47.852,-24.414,0.000
1743045425.057,-11.230,-30.762,-37.109,-16.602,0.000
1743045425.061,-17.090,-25.391,-33.691,-18.555,0.000
1743045425.065,-25.391,-26.367,-25.391,-29.785,0.000
1743045425.069,0.000,-28.320,0.000,-27.832,0.000
1743045425.073,0.000,-16.113,0.000,-17.578,0.000
1743045425.077,0.000,-17.090,0.000,-19.531,0.000
1743045425.081,0.000,-25.391,0.000,-20.020,0.000
1743045425.085,0.000,-24.414,0.000,-17.090,0.000
1743045425.089,0.000,-27.344,0.000,-26.855,0.000
1743045425.093,0.000,-32.227,0.000,-25.391,0.000
1743045425.096,0.000,-27.344,0.000,-9.766,0.000
1743045425.100,0.000,-27.344,0.000,-3.906,0.000
1743045425.104,0.000,-32.715,0.000,-17.090,0.000
1743045425.108,0.000,-23.926,0.000,-26.855,0.000
1743045425.112,0.000,-23.926,0.000,-22.461,0.000
1743045425.116,-33.203,-24.902,-23.926,-23.438,0.000
1743045425.120,-31.738,-27.344,-28.809,-22.461,0.000
1743045425.124,-31.738,-38.574,-31.250,-16.602,0.000
1743045425.128,-31.738,-34.668,-32.227,-31.250,0.000
1743045425.132,-30.273,-27.344,-31.250,-43.457,0.000
1743045425.136,-30.273,-27.832,-33.203,-35.156,0.000
1743045425.139,-35.645,-26.367,-40.039,-40.527,0.000
1743045425.143,-34.668,-20.508,-35.156,-40.527,0.000
1743045425.147,-24.414,-10.254,-25.879,-20.996,0.000
1743045425.151,-17.090,-14.648,-30.273,-14.160,0.000
1743045425.155,-22.461,-27.344,-28.320,-15.625,0.000
1743045425.159,-35.156,-26.367,-18.066,-15.137,0.000
1743045425.163,-40.039,-28.809,-17.578,-26.367,0.000
1743045425.167,-37.598,-25.391,-21.973,-28.320,0.000
1743045425.171,-31.250,-18.066,-20.996,-22.461,0.000
1743045425.175,-36.133,-23.926,-29.297,-23.438,0.000
1743045425.179,-29.785,-36.621,-36.133,-24.414,0.000
1743045425.182,-10.254,-35.645,-20.996,-14.648,0.000
1743045425.186,-19.531,-27.832,-33.203,-15.137,0.000
1743045425.190,-24.902,-14.160,-40.527,-14.160,0.000
1743045425.194,-24.414,-14.648,-28.320,-14.648,0.000
1743045425.198,-35.645,-31.738,-32.227,-26.855,0.000
1743045425.202,-43.457,-38.086,-25.391,-26.367,0.000
1743045425.206,-37.109,-29.785,-18.066,-21.484,0.000
1743045425.210,-27.344,-16.113,-18.066,-20.508,0.000
1743045425.214,-19.043,-18.555,-12.207,-11.719,0.000
1743045425.218,-20.020,-26.367,-18.066,-13.672,0.000
1743045425.221,-25.391,-30.762,-27.832,-23.438,0.000
1743045425.225,-28.809,-32.227,-31.250,-27.832,0.000
1743045425.229,-33.691,-21.484,-27.832,-25.879,0.000
1743045425.233,-40.527,-14.648,-19.043,-30.273,0.000
1743045425.237,-45.410,-17.090,-20.996,-42.969,0.000
1743045425.241,-35.156,-16.113,-21.973,-27.832,0.000
1743045425.245,-35.156,-21.973,-31.250,-19.531,0.000
1743045425.249,-39.551,-28.320,-41.504,-32.227,0.000
1743045425.253,-39.551,-35.645,-28.809,-35.645,0.000
1743045425.257,-41.016,-39.551,-15.137,-35.645,0.000
1743045425.261,-38.086,-34.180,-20.020,-39.551,0.000
1743045425.264,-42.969,-34.668,-28.809,-49.316,0.000
1743045425.268,-37.109,-38.086,-30.762,-43.945,0.000
1743045425.272,-30.273,-26.855,-28.320,-32.227,0.000
1743045425.276,-20.996,-13.672,-27.344,-28.320,0.000
1743045425.280,-21.973,-21.484,-34.668,-30.273,0.000
1743045425.284,-44.922,-40.527,-37.598,-39.551,0.000
1743045425.288,-38.574,-42.480,-35.156,-29.785,0.000
1743045425.292,-23.438,-24.414,-38.574,-25.391,0.000
1743045425.296,-37.109,-9.766,-33.203,-41.504,0.000
1743045425.300,-39.551,-17.578,-30.273,-45.898,0.000
1743045425.304,-33.203,-34.180,-41.016,-47.363,0.000
1743045425.307,-28.320,-29.297,-45.410,-46.875,0.000
1743045425.311,-20.508,-15.625,-39.062,-39.062,0.000
1743045425.315,-23.438,-12.207,-25.879,-32.715,0.000
1743045425.319,-30.273,-18.066,-30.273,-23.438,0.000
1743045425.323,-32.227,-19.043,-38.574,-17.090,0.000
1743045425.327,-33.691,-37.598,-33.691,-24.902,0.000
1743045425.331,-36.621,-43.457,-29.297,-35.645,0.000
1743045425.335,-33.203,-35.645,-17.090,-26.855,0.000
1743045425.339,-26.855,-31.250,-20.020,-22.461,0.000
1743045425.343,-26.855,-25.879,-28.320,-34.180,0.000
1743045425.346,-31.250,-20.020,-23.438,-34.668,0.000
1743045425.350,-35.645,-18.066,-31.738,-31.250,0.000
1743045425.354,-28.320,-25.879,-43.457,-29.785,0.000
1743045425.358,-25.879,-31.250,-44.434,-40.039,0.000
1743045425.362,-29.785,-31.738,-49.805,-44.434,0.000
1743045425.366,-29.785,-39.062,-50.293,-37.598,0.000
1743045425.370,-25.391,-30.762,-18.555,-28.320,0.000
1743045425.374,-23.926,-34.180,-4.395,-28.809,0.000
1743045425.378,-26.855,-45.410,-21.484,-29.297,0.000
1743045425.382,-31.250,-37.109,-18.555,-27.832,0.000
1743045425.386,-33.203,-34.668,-16.602,-25.879,0.000
1743045425.389,-29.785,-23.926,-22.949,-24.902,0.000
1743045425.393,-34.180,-17.578,-31.250,-36.133,0.000
1743045425.397,0.000,-25.391,-41.992,-41.016,0.000
1743045425.401,0.000,-18.066,-37.598,-38.086,0.000
1743045425.405,0.000,-19.531,-36.621,-37.109,0.000
1743045425.409,0.000,-29.785,-46.875,-29.785,0.000
1743045425.413,0.000,-29.785,-33.691,-20.996,0.000
1743045425.417,0.000,-39.062,-24.902,-35.645,0.000
1743045425.421,0.000,-42.969,-25.879,-42.480,0.000
1743045425.425,0.000,-34.668,-21.484,-36.133,0.000
1743045425.429,0.000,-26.367,-11.719,-26.855,0.000
1743045425.432,0.000,-25.879,-15.625,-22.461,0.000
1743045425.436,0.000,-29.297,-30.762,-29.297,0.000
1743045425.440,0.000,-25.391,-31.250,-33.203,0.000
1743045425.444,-41.504,-21.484,0.000,-37.598,0.000
1743045425.448,-37.598,-19.043,0.000,-31.250,0.000
1743045425.452,-40.527,-37.109,0.000,-26.367,0.000
1743045425.456,-39.551,-50.293,0.000,-24.902,0.000
1743045425.460,-35.156,-43.945,0.000,-25.879,0.000
1743045425.464,-48.828,-40.039,0.000,-35.156,0.000
1743045425.468,-45.898,-33.691,0.000,-44.922,0.000
1743045425.471,-43.457,-23.926,0.000,-41.992,0.000
1743045425.475,-40.039,-22.461,0.000,-40.039,0.000
1743045425.479,-30.762,-20.996,0.000,-34.668,0.000
1743045425.483,-30.273,-29.785,0.000,-22.949,0.000
1743045425.487,-39.551,-38.574,0.000,-23.438,0.000
1743045425.491,-29.785,-37.598,-32.715,-32.227,0.000
1743045425.495,-28.809,-44.434,-36.621,-31.250,0.000
1743045425.499,-23.926,-43.945,-33.691,-16.602,0.000
1743045425.503,-26.367,-37.109,-34.668,-8.789,0.000
1743045425.507,-33.203,-36.621,-42.969,-18.555,0.000
1743045425.511,-41.992,-37.598,-44.922,-31.250,0.000
1743045425.514,-39.551,-41.992,-44.922,-29.785,0.000
1743045425.518,-37.109,-39.062,-39.062,-37.598,0.000
1743045425.522,-38.574,-30.273,-20.020,-37.598,0.000
1743045425.526,-29.297,-22.461,-13.672,-30.762,0.000
1743045425.530,-40.039,-27.344,-21.973,-37.598,0.000
1743045425.534,-45.410,-43.945,-22.461,-40.039,0.000
1743045425.538,-37.109,-35.645,-27.832,-33.691,0.000
1743045425.542,-29.785,-22.949,-29.785,-24.414,0.000
1743045425.546,-28.320,-20.996,-25.391,-21.973,0.000
1743045425.550,-27.832,-22.949,-43.457,-30.762,0.000
1743045425.553,-20.996,-23.438,-62.012,-18.555,0.000
1743045425.557,-27.344,-26.367,-37.598,-14.648,0.000
1743045425.561,-30.762,-28.320,-10.254,-33.203,0.000
1743045425.565,-32.227,-23.926,-7.324,-37.598,0.000
1743045425.569,-29.785,-14.648,-7.812,-36.133,0.000
1743045425.573,-26.855,-13.184,-5.859,-29.297,0.000
1743045425.577,-33.203,-24.414,-11.230,-26.855,0.000
1743045425.581,-35.645,-22.461,-17.090,-23.926,0.000
1743045425.585,-30.762,-22.949,-13.672,-7.812,0.000
1743045425.589,-25.879,-24.902,-16.602,-3.418,0.000
1743045425.593,-28.320,-20.996,-24.414,-16.113,0.000
1743045425.596,-28.320,-19.043,-27.344,-18.555,0.000
1743045425.600,-27.832,-20.020,-39.062,-12.695,0.000
1743045425.604,-35.645,-39.551,-45.898,-20.508,0.000
1743045425.608,-34.668,-47.363,-41.992,-26.367,0.000
1743045425.612,-33.203,-39.062,-44.434,-30.762,0.000
1743045425.616,-31.738,-41.992,-33.203,-32.227,0.000
1743045425.620,-25.391,-31.738,-16.113,-19.531,0.000
1743045425.624,-25.391,-20.508,-16.602,-18.555,0.000
1743045425.628,-26.367,-16.602,-24.902,-21.484,0.000
1743045425.632,0.000,-14.648,-17.090,-6.836,0.000
1743045425.636,0.000,-12.207,-12.695,-3.418,0.000
1743045425.639,0.000,-18.066,-37.109,-9.277,0.000
1743045425.643,0.000,-31.250,-45.410,-5.371,0.000
1743045425.647,0.000,-46.875,-40.039,-18.066,0.000
1743045425.651,0.000,-42.480,-35.156,-24.902,0.000
1743045425.655,0.000,-31.250,-32.715,-28.320,0.000
1743045425.659,0.000,-23.926,-25.879,-19.531,0.000
1743045425.663,0.000,-24.902,-20.996,-7.812,0.000
1743045425.667,0.000,-34.668,-20.508,-16.602,0.000
1743045425.671,0.000,-38.086,-9.766,-15.137,0.000
1743045425.675,0.000,-34.668,3.418,-2.441,0.000
1743045425.678,-28.320,-21.484,-7.812,-1.953,0.000
1743045425.682,-28.809,-28.320,-28.320,-10.254,0.000
1743045425.686,-25.391,-39.062,-31.250,-14.160,0.000
1743045425.690,-33.691,-32.715,-28.320,-25.879,0.000
1743045425.694,-31.250,-23.926,-32.227,-24.414,0.000
1743045425.698,-29.785,-16.113,-37.598,-22.461,0.000
1743045425.702,-41.016,-20.508,-37.109,-29.785,0.000
1743045425.706,-35.156,-21.484,-20.020,-23.438,0.000
1743045425.710,-22.949,-12.207,-22.461,-19.531,0.000
1743045425.714,-24.414,-22.461,-40.527,-24.414,0.000
1743045425.718,-38.574,-29.785,-25.879,-31.738,0.000
1743045425.721,-37.109,-21.973,-13.672,-32.227,0.000
1743045425.725,0.000,-29.785,-13.672,-28.320,0.000
1743045425.729,0.000,-35.156,-8.789,-25.879,0.000
1743045425.733,0.000,-32.715,-16.602,-20.508,0.000
1743045425.737,0.000,-30.762,-28.320,-20.020,0.000
1743045425.741,0.000,-21.973,-32.227,-30.273,0.000
1743045425.745,0.000,-22.461,-24.902,-36.621,0.000
1743045425.749,0.000,-28.809,-32.715,-33.203,0.000
1743045425.753,0.000,-22.461,-36.133,-29.297,0.000
1743045425.757,0.000,-22.461,-23.926,-27.344,0.000
1743045425.761,0.000,-20.020,-15.625,-20.508,0.000
1743045425.764,0.000,-8.301,-25.879,-20.020,0.000
1743045425.768,0.000,-20.020,-41.016,-15.137,0.000
1743045425.772,-42.480,-41.992,0.000,-12.207,0.000
1743045425.776,-44.922,-42.480,0.000,-24.414,0.000
1743045425.780,-47.363,-35.156,0.000,-37.598,0.000
1743045425.784,-49.805,-35.645,0.000,-42.480,0.000
1743045425.788,-45.410,-37.598,0.000,-41.504,0.000
1743045425.792,-39.551,-29.785,0.000,-38.086,0.000
1743045425.796,-36.133,-24.902,0.000,-35.156,0.000
1743045425.800,-45.898,-22.949,0.000,-36.133,0.000
1743045425.803,-50.293,-22.949,0.000,-34.180,0.000
1743045425.807,-33.691,-25.879,0.000,-22.949,0.000
1743045425.811,-35.645,-30.762,0.000,-25.391,0.000
1743045425.815,-46.387,-34.180,0.000,-46.875,0.000
1743045425.819,-35.156,-23.438,-47.363,-47.852,0.000
1743045425.823,-29.785,-25.879,-28.809,-31.738,0.000
1743045425.827,-34.180,-26.855,-34.668,-29.785,0.000
1743045425.831,-26.855,-21.484,-24.414,-28.320,0.000
1743045425.835,-32.715,-31.738,-16.113,-31.738,0.000
1743045425.839,-41.992,-33.203,-26.855,-37.598,0.000
1743045425.843,-42.969,-26.367,-29.297,-40.527,0.000
1743045425.846,-45.898,-30.762,-34.180,-36.133,0.000
1743045425.850,-44.434,-39.062,-33.691,-18.555,0.000
1743045425.854,-37.109,-30.762,-27.832,-17.578,0.000
1743045425.858,-24.902,-22.949,-29.297,-27.344,0.000
1743045425.862,-27.832,-41.016,-46.387,-27.832,0.000
1743045425.866,-31.250,-48.340,0.000,-23.438,0.000
1743045425.870,-21.973,-40.527,0.000,-18.555,0.000
1743045425.874,-20.508,-36.133,0.000,-19.043,0.000
1743045425.878,-26.367,-28.809,0.000,-20.996,0.000
1743045425.882,-23.438,-18.555,0.000,-21.973,0.000
1743045425.886,-19.043,-23.438,0.000,-18.555,0.000
1743045425.889,-24.902,-31.250,0.000,-15.625,0.000
1743045425.893,-23.438,-22.461,0.000,-18.066,0.000
1743045425.897,-18.066,-9.766,0.000,-18.555,0.000
1743045425.901,-25.391,-21.484,0.000,-22.461,0.000
1743045425.905,-35.156,-35.645,0.000,-31.738,0.000
1743045425.909,-42.480,-44.922,0.000,-43.945,0.000
1743045425.913,-43.945,-45.410,-36.621,-39.551,0.000
1743045425.917,-35.645,-37.598,-28.320,-35.156,0.000
1743045425.921,-29.297,-29.785,-27.832,-35.645,0.000
1743045425.925,-27.344,-17.090,-16.602,-26.367,0.000
1743045425.928,-20.020,-11.230,-13.184,-19.531,0.000
1743045425.932,-15.625,-13.184,-28.320,-16.113,0.000
1743045425.936,-25.879,-27.344,-29.785,-20.020,0.000
1743045425.940,-35.645,-41.016,-22.949,-25.879,0.000
1743045425.944,-31.250,-37.109,-20.508,-26.367,0.000
1743045425.948,-26.367,-34.180,-27.344,-26.855,0.000
1743045425.952,-29.785,-28.320,-30.273,-30.273,0.000
1743045425.956,-34.180,-11.230,-19.531,-28.809,0.000
1743045425.960,-37.109,-17.578,-20.996,-28.320,0.000
1743045425.964,-41.016,-37.598,-28.320,-36.621,0.000
1743045425.968,-39.062,-34.668,-31.738,-41.016,0.000
1743045425.971,-35.156,-26.367,-35.645,-34.668,0.000
1743045425.975,-35.645,-29.297,-27.832,-29.297,0.000
1743045425.979,-37.109,-30.273,-18.066,-27.832,0.000
1743045425.983,-41.992,-26.855,-28.809,-23.926,0.000
1743045425.987,-42.480,-27.832,-37.109,-18.066,0.000
1743045425.991,-39.062,-31.738,-32.227,-19.043,0.000
1743045425.995,-33.203,-39.551,-29.297,-28.320,0.000
1743045425.999,-24.902,-38.086,-17.578,-33.203,0.000
1743045426.003,-26.367,-32.715,-11.719,-34.668,0.000
1743045426.007,-28.809,-23.926,-23.438,-36.133,0.000
1743045426.011,-32.227,-20.508,-29.785,-37.109,0.000
1743045426.014,-42.969,-34.180,-30.273,-41.992,0.000
1743045426.018,-36.133,-25.391,-32.715,-29.297,0.000
1743045426.022,-25.391,-6.348,-36.621,-15.625,0.000
1743045426.026,-31.738,-11.230,-28.809,-16.113,0.000
1743045426.030,-38.086,-15.625,-15.625,-17.578,0.000
1743045426.034,-36.621,-23.438,-20.508,-23.926,0.000
1743045426.038,-36.133,-30.762,-33.203,-32.227,0.000
1743045426.042,-47.363,-37.598,-30.762,-35.645,0.000
1743045426.046,-51.758,-39.062,-26.367,-25.391,0.000
1743045426.050,-38.574,-42.480,-21.484,-19.043,0.000
1743045426.054,-37.109,-44.434,-25.879,-25.391,0.000
1743045426.057,-37.109,-39.551,-35.156,-30.273,0.000
1743045426.061,-34.668,-26.367,-38.086,-22.461,0.000
1743045426.065,-30.273,-15.625,-37.109,-15.625,0.000
1743045426.069,-26.367,-20.508,-41.016,-21.973,0.000
1743045426.073,-34.668,-34.180,-50.293,-28.809,0.000
1743045426.077,-49.316,-40.527,-44.434,-34.180,0.000
1743045426.081,-50.293,-26.855,-34.180,-36.133,0.000
1743045426.085,-41.504,-27.832,-29.297,-39.551,0.000
1743045426.089,-36.621,-40.527,-33.691,-34.180,0.000
1743045426.093,-35.156,-39.062,-30.762,-35.645,0.000
1743045426.096,-37.109,-30.273,-28.320,-41.016,0.000
1743045426.100,-41.992,-23.438,-32.227,-40.039,0.000
1743045426.104,-45.410,-30.273,-33.691,-38.086,0.000
1743045426.108,-40.527,-34.180,-22.949,-34.180,0.000
1743045426.112,-34.180,-20.508,-15.137,-21.484,0.000
1743045426.116,-28.809,-23.926,-25.391,-19.531,0.000
1743045426.120,-26.367,-30.273,-33.691,-32.227,0.000
1743045426.124,-24.902,-28.809,-41.504,-23.438,0.000
1743045426.128,-22.461,-28.809,-37.598,-13.672,0.000
1743045426.132,-26.855,-32.227,-30.762,-23.438,0.000
1743045426.136,-32.227,-30.762,-34.668,-23.438,0.000
1743045426.139,-22.461,-27.344,-32.715,-19.043,0.000
1743045426.143,-27.832,-34.180,-26.855,-19.531,0.000
1743045426.147,-33.203,-33.203,-28.809,-22.949,0.000
1743045426.151,-34.668,-28.809,-23.438,-28.809,0.000
1743045426.155,-34.668,-26.367,-21.973,-25.879,0.000
1743045426.159,-20.996,-26.855,-33.691,-18.066,0.000
1743045426.163,-12.695,-30.762,-37.598,-17.090,0.000
1743045426.167,-22.461,-33.203,-26.855,-16.113,0.000
1743045426.171,-40.039,-32.715,-20.508,-16.602,0.000
1743045426.175,-54.688,-42.969,-24.414,-25.879,0.000
1743045426.179,-50.781,-47.852,-25.391,-22.949,0.000
1743045426.182,-41.992,-30.762,-22.949,-4.395,0.000
1743045426.186,-36.133,-24.902,-21.973,8.789,0.000
1743045426.190,-37.109,-37.598,-24.414,1.465,0.000
1743045426.194,-34.180,-39.062,0.000,3.906,0.000
1743045426.198,-35.645,-48.340,0.000,-2.930,0.000
1743045426.202,-40.527,-50.293,0.000,-20.508,0.000
1743045426.206,-40.527,-36.621,0.000,-22.461,0.000
1743045426.210,-32.227,-32.715,0.000,-20.020,0.000
1743045426.214,-29.297,-33.203,0.000,-20.508,0.000
1743045426.218,-33.203,-34.180,0.000,-19.043,0.000
1743045426.221,-19.531,-28.320,0.000,-8.301,0.000
1743045426.225,-17.090,-28.809,0.000,-2.441,0.000
1743045426.229,-20.996,-36.133,0.000,-8.301,0.000
1743045426.233,-14.648,-34.180,0.000,-9.766,0.000
1743045426.237,-13.184,-22.461,0.000,-13.672,0.000
1743045426.241,-21.484,-24.902,-22.949,-26.855,0.000
1743045426.245,-31.738,-39.551,-20.996,-35.156,0.000
1743045426.249,-32.715,-42.969,-20.020,-22.949,0.000
1743045426.253,-27.344,-31.250,-17.578,-18.066,0.000
1743045426.257,-24.902,-16.602,-12.695,-18.555,0.000
1743045426.261,-25.391,-20.508,-13.672,-13.184,0.000
1743045426.264,-20.508,-26.367,-27.344,-15.137,0.000
1743045426.268,-12.695,-25.391,-28.809,-5.371,0.000
1743045426.272,-13.672,-30.273,-23.926,-2.441,0.000
1743045426.276,-18.066,-36.621,-24.414,-12.695,0.000
1743045426.280,-20.020,-40.039,-19.531,-12.695,0.000
1743045426.284,-20.508,-35.645,-18.555,-9.766,0.000
1743045426.288,-24.414,-36.133,-23.438,-4.395,0.000
1743045426.292,-30.273,-47.363,-28.320,-16.113,0.000
1743045426.296,-25.879,-45.898,-21.973,-20.020,0.000
1743045426.300,-23.438,-28.320,-8.301,-4.395,0.000
1743045426.304,-18.066,-14.648,-7.324,2.441,0.000
1743045426.307,-16.602,-15.137,-15.625,-3.418,0.000
1743045426.311,-28.320,-24.902,-28.320,-19.043,0.000
1743045426.315,-28.809,-30.762,-34.180,-25.879,0.000
1743045426.319,-21.973,-29.297,-19.531,-21.484,0.000
1743045426.323,-26.367,-36.621,-18.066,-23.438,0.000
1743045426.327,-31.738,-38.574,-19.043,-28.320,0.000
1743045426.331,-31.738,-27.344,-20.996,-22.461,0.000
1743045426.335,-31.250,-20.020,-28.809,-20.508,0.000
1743045426.339,-21.484,-19.531,-20.508,-19.043,0.000
1743045426.343,-23.926,-19.043,-7.324,-22.461,0.000
1743045426.346,-33.203,-30.273,-7.324,-31.738,0.000
1743045426.350,-32.715,-40.039,-12.695,-21.484,0.000
1743045426.354,-27.344,-24.902,-16.113,-17.090,0.000
1743045426.358,-29.785,-17.090,-30.762,-25.391,0.000
1743045426.362,-28.320,-20.020,-29.297,-20.020,0.000
1743045426.366,-20.996,-23.926,-23.926,-21.484,0.000
1743045426.370,-21.484,-21.973,-27.344,-28.809,0.000
1743045426.374,-28.320,-23.438,-25.391,-20.020,0.000
1743045426.378,-29.297,-31.738,-38.086,-12.207,0.000
1743045426.382,-35.645,-33.203,-36.621,-18.555,0.000
1743045426.386,-49.316,-29.785,-21.973,-19.043,0.000
1743045426.389,-48.340,-29.297,-20.996,-17.578,0.000
1743045426.393,-41.992,-34.180,-18.066,-17.090,0.000
1743045426.397,-41.504,-49.805,-16.602,-17.090,0.000
1743045426.401,-35.156,-58.594,-26.367,-15.137,0.000
1743045426.405,-34.668,-43.945,-32.227,-7.812,0.000
1743045426.409,-34.180,-32.715,-24.414,-14.648,0.000
1743045426.413,-29.785,-33.203,-24.902,-23.438,0.000
1743045426.417,-32.715,-28.809,-41.504,-26.367,0.000
1743045426.421,-34.180,-27.832,-40.039,-30.762,0.000
1743045426.425,-31.250,-30.273,-32.715,-29.297,0.000
1743045426.429,-24.902,-14.648,-30.762,-20.508,0.000
1743045426.432,-30.273,-19.531,-32.227,-29.297,0.000
1743045426.436,-36.621,-39.062,-36.621,-43.945,0.000
1743045426.440,-33.691,-39.062,-34.668,-40.527,0.000
1743045426.444,-33.203,-32.715,-30.273,-35.156,0.000
1743045426.448,-32.715,-40.039,-29.785,-37.109,0.000
1743045426.452,-30.273,-41.016,-21.484,-26.855,0.000
1743045426.456,-30.762,-37.109,-26.367,-12.695,0.000
1743045426.460,-29.785,-33.203,-33.691,-17.578,0.000
1743045426.464,-22.461,-21.973,-25.391,-18.555,0.000
1743045426.468,-27.832,-29.785,-37.109,-20.996,0.000
1743045426.471,-40.527,-38.574,-48.828,-34.668,0.000
1743045426.475,-34.668,-31.738,-41.016,-29.785,0.000
1743045426.479,-38.574,-30.273,-43.945,-27.344,0.000
1743045426.483,-42.480,-30.273,-45.410,-27.832,0.000
1743045426.487,-31.738,-32.227,-33.203,-20.996,0.000
1743045426.491,-26.855,-27.832,-27.832,-24.414,0.000
1743045426.495,-29.297,-26.367,-30.762,-32.715,0.000
1743045426.499,-38.574,-36.621,-27.344,-39.551,0.000
1743045426.503,-51.270,-47.852,-26.367,-48.340,0.000
1743045426.507,-56.152,-47.852,-31.250,-43.457,0.000
1743045426.511,-54.688,-39.062,-30.762,-30.762,0.000
1743045426.514,-42.480,-26.367,-27.344,-20.996,0.000
1743045426.518,-34.180,-31.250,-25.879,-23.438,0.000
1743045426.522,-35.156,-35.156,-28.320,-31.738,0.000
1743045426.526,-30.762,-35.156,-29.297,-29.785,0.000
1743045426.530,-30.762,-35.645,-26.367,-31.250,0.000
1743045426.534,-32.227,-33.203,-39.551,-38.086,0.000
1743045426.538,-33.203,-32.715,-47.363,-44.922,0.000
1743045426.542,-29.297,-31.738,-36.621,-41.992,0.000
1743045426.546,-22.461,-24.902,-33.203,-29.785,0.000
1743045426.550,-27.832,-23.926,-31.250,-26.855,0.000
1743045426.554,-39.062,-32.227,-27.832,-34.668,0.000
1743045426.557,-38.574,-26.367,-27.344,-25.879,0.000
1743045426.561,-42.480,-20.020,-33.691,-31.738,0.000
1743045426.565,-45.898,-26.855,-33.203,-41.992,0.000
1743045426.569,0.000,-26.367,0.000,-40.527,0.000
1743045426.573,0.000,-23.926,0.000,-54.688,0.000
1743045426.577,0.000,-28.809,0.000,-57.617,0.000
1743045426.581,0.000,-30.762,0.000,-58.105,0.000
1743045426.585,0.000,-28.809,0.000,-69.824,0.000
1743045426.589,0.000,-20.020,0.000,-92.773,0.000
1743045426.593,0.000,-13.184,0.000,-108.887,0.000
1743045426.596,0.000,-18.555,0.000,-120.605,0.000
