timestamps,TP9,AF7,AF8,TP10,Right AUX
1745527214.381,0.000,-37.598,-31.250,-20.020,0.000
1745527214.385,0.000,-32.715,-24.414,-13.184,0.000
1745527214.389,0.000,-27.832,-26.367,-21.484,0.000
1745527214.393,0.000,-31.250,-32.227,-24.902,0.000
1745527214.397,0.000,-34.668,-31.738,-25.879,0.000
1745527214.401,0.000,-27.344,-31.250,-27.832,0.000
1745527214.405,0.000,-27.832,-32.715,-25.391,0.000
1745527214.408,0.000,-34.180,-31.738,-25.391,0.000
1745527214.412,0.000,-31.738,-37.598,-25.879,0.000
1745527214.416,0.000,-30.762,-37.109,-19.531,0.000
1745527214.420,0.000,-26.855,-34.180,-21.484,0.000
1745527214.424,0.000,-26.367,-37.109,-31.250,0.000
1745527214.424,0.000,-26.367,-37.109,-31.250,0.000
1745527214.428,-13.184,-33.691,-32.227,-30.762,0.000
1745527214.432,-12.695,-37.109,-32.227,-27.344,0.000
1745527214.436,-17.578,-33.691,-35.645,-32.227,0.000
1745527214.440,-21.973,-30.273,-32.715,-30.273,0.000
1745527214.444,-25.879,-27.832,-28.320,-23.926,0.000
1745527214.447,-29.297,-26.367,-30.762,-21.973,0.000
1745527214.451,-27.344,-30.273,-33.203,-31.250,0.000
1745527214.455,-27.344,-31.738,-34.180,-37.598,0.000
1745527214.459,-25.879,-28.320,-36.621,-27.832,0.000
1745527214.463,-25.879,-30.273,-33.203,-20.508,0.000
1745527214.467,-25.879,-39.551,-30.273,-27.344,0.000
1745527214.471,-20.508,-42.480,-28.809,-37.109,0.000
1745527214.475,-18.066,-41.016,-26.855,-34.180,0.000
1745527214.479,-19.043,-47.852,-31.738,-34.180,0.000
1745527214.483,-20.020,-49.805,-31.250,-40.527,0.000
1745527214.487,-23.438,-45.410,-33.203,-48.340,0.000
1745527214.490,-29.297,-42.969,-30.762,-48.828,0.000
1745527214.494,-32.715,-37.598,-26.367,-39.551,0.000
1745527214.498,-30.762,-31.738,-25.879,-29.785,0.000
1745527214.502,-23.926,-40.039,-22.949,-32.715,0.000
1745527214.506,-16.602,-49.805,-24.902,-34.180,0.000
1745527214.510,-17.090,-45.898,-28.809,-33.203,0.000
1745527214.514,-36.621,-40.527,-26.367,-36.133,0.000
1745527214.518,-51.270,-37.109,-27.344,-35.156,0.000
1745527214.522,-34.180,-32.227,-29.297,-29.785,0.000
1745527214.526,-34.668,-31.250,-28.809,-28.809,0.000
1745527214.530,-36.621,-33.203,-30.762,-34.180,0.000
1745527214.533,-41.016,-35.156,-30.273,-31.250,0.000
1745527214.537,-40.527,-34.668,-28.320,-24.902,0.000
1745527214.541,-37.109,-31.738,-26.855,-22.461,0.000
1745527214.545,-38.086,-37.598,-29.785,-23.438,0.000
1745527214.549,-38.574,-45.410,-34.668,-34.668,0.000
1745527214.553,-29.297,-46.387,-29.297,-49.316,0.000
1745527214.557,-23.438,-41.504,-22.461,-48.340,0.000
1745527214.561,-34.668,-42.969,-26.855,-43.457,0.000
1745527214.565,-46.387,-44.922,-35.156,-40.527,0.000
1745527214.569,-46.387,-46.875,-32.715,-34.180,0.000
1745527214.572,-41.016,-47.363,-28.320,-35.156,0.000
1745527214.576,-33.203,-40.039,-24.902,-40.039,0.000
1745527214.580,-31.250,-39.062,-21.973,-37.109,0.000
1745527214.584,-29.785,-42.480,-27.832,-26.367,0.000
1745527214.588,-28.320,-39.062,-29.785,-27.832,0.000
1745527214.592,-27.344,-34.668,-25.879,-35.645,0.000
1745527214.596,-28.320,-45.410,-31.250,-29.785,0.000
1745527214.600,-33.691,-48.828,-28.809,-27.832,0.000
1745527214.604,-28.320,-41.504,-23.926,-24.414,0.000
1745527214.608,-22.461,-42.969,-29.297,-18.555,0.000
1745527214.611,-26.367,-45.898,-31.738,-28.809,0.000
1745527214.615,-25.879,-42.969,-31.738,-39.062,0.000
1745527214.619,-24.414,-42.480,-31.738,-39.062,0.000
1745527214.623,-19.531,-41.504,-27.344,-34.180,0.000
1745527214.627,-21.973,-38.574,-27.832,-37.109,0.000
1745527214.631,-31.250,-38.574,-30.273,-37.598,0.000
1745527214.635,-34.180,-37.598,-30.762,-35.645,0.000
1745527214.639,-34.668,-43.945,-36.133,-39.062,0.000
1745527214.643,-32.715,-45.898,-38.086,-33.691,0.000
1745527214.647,-32.715,-37.109,-37.598,-31.738,0.000
1745527214.651,-34.180,-37.109,-35.645,-35.645,0.000
1745527214.654,-32.715,-42.480,-34.180,-34.668,0.000
1745527214.658,-32.227,-44.434,-32.227,-33.691,0.000
1745527214.662,-30.273,-43.945,-31.250,-32.227,0.000
1745527214.666,-21.973,-35.645,-27.344,-30.762,0.000
1745527214.670,-19.043,-29.297,-21.484,-36.133,0.000
1745527214.674,-25.391,-30.762,-29.297,-38.086,0.000
1745527214.678,-26.855,-33.203,-35.645,-31.738,0.000
1745527214.682,-15.625,-29.297,-27.344,-23.438,0.000
1745527214.686,-16.602,-29.297,-27.832,-19.043,0.000
1745527214.690,-32.715,-41.504,-35.156,-22.461,0.000
1745527214.694,-28.809,-40.039,-36.133,-26.855,0.000
1745527214.697,-5.371,-27.832,-36.133,-21.973,0.000
1745527214.701,0.000,-21.973,-26.855,-6.836,0.000
1745527214.705,-25.879,-28.809,-13.672,-12.207,0.000
1745527214.709,-47.852,-35.645,-12.207,-21.484,0.000
1745527214.713,-38.086,-36.621,-18.555,-10.254,0.000
1745527214.717,-23.926,-34.668,-11.719,1.465,0.000
1745527214.721,-27.344,-41.992,-9.277,-3.906,0.000
1745527214.725,-25.879,-45.898,-14.160,-15.625,0.000
1745527214.729,-30.762,-48.828,-15.625,-23.438,0.000
1745527214.733,-32.715,-55.176,-13.184,-18.066,0.000
1745527214.736,-26.855,-60.059,-7.324,-9.277,0.000
1745527214.740,-30.273,-60.547,-8.789,-6.348,0.000
1745527214.744,-26.367,-56.641,-9.277,-10.254,0.000
1745527214.748,-12.695,-54.688,-7.812,-7.324,0.000
1745527214.752,-13.672,-55.664,-12.207,-2.441,0.000
1745527214.756,-21.484,-57.617,-13.184,-5.859,0.000
1745527214.760,-29.297,-57.129,-19.531,-7.812,0.000
1745527214.764,-28.320,-57.129,-24.414,-2.930,0.000
1745527214.768,-24.902,-59.570,-19.043,4.883,0.000
1745527214.772,-22.461,-61.035,-20.020,0.977,0.000
1745527214.776,-22.461,-56.152,-18.066,-0.977,0.000
1745527214.779,-29.297,-52.734,-19.043,-3.418,0.000
1745527214.783,-38.086,-57.617,-23.438,-9.766,0.000
1745527214.787,-42.480,-60.547,-27.344,-13.672,0.000
1745527214.791,-41.992,-59.082,-27.344,-21.973,0.000
1745527214.795,-38.086,-55.176,-21.973,-19.043,0.000
1745527214.799,-35.645,-54.199,-24.414,-13.672,0.000
1745527214.803,-29.297,-52.246,-29.297,-18.066,0.000
1745527214.807,-23.926,-50.781,-31.738,-17.578,0.000
1745527214.811,-28.809,-51.758,-34.180,-14.160,0.000
1745527214.815,-30.273,-45.410,-32.715,-17.090,0.000
1745527214.819,-28.809,-41.016,-31.738,-20.020,0.000
1745527214.822,-24.414,-37.598,-30.273,-17.578,0.000
1745527214.826,-25.391,-38.574,-28.809,-20.508,0.000
1745527214.830,-32.715,-42.969,-26.367,-20.508,0.000
1745527214.834,-34.668,-41.016,-24.902,-19.043,0.000
1745527214.838,-31.250,-38.574,-25.391,-14.648,0.000
1745527214.842,-37.598,-40.527,-24.414,-11.230,0.000
1745527214.846,-37.109,-41.016,-22.949,-8.301,0.000
1745527214.850,-27.344,-38.086,-21.484,-0.488,0.000
1745527214.854,-18.555,-34.180,-19.531,-15.625,0.000
1745527214.858,-18.555,-40.039,-21.973,-32.715,0.000
1745527214.862,-22.461,-41.992,-20.508,-31.250,0.000
1745527214.865,-20.020,-35.156,-15.625,-22.949,0.000
1745527214.869,-20.508,-28.809,-15.137,-23.926,0.000
1745527214.873,-25.879,-31.738,-18.066,-30.273,0.000
1745527214.877,-30.762,-41.016,-21.973,-28.809,0.000
1745527214.881,-30.273,-40.039,-19.531,-22.949,0.000
1745527214.885,-26.367,-37.109,-18.555,-23.926,0.000
1745527214.889,-27.832,-42.480,-20.508,-35.156,0.000
1745527214.893,-28.809,-38.574,-18.555,-43.457,0.000
1745527214.897,-23.926,-30.762,-18.066,-34.668,0.000
1745527214.901,-21.484,-32.715,-15.625,-21.484,0.000
1745527214.904,-13.672,-24.414,-16.113,-23.926,0.000
1745527214.908,-16.602,-17.578,-22.949,-37.109,0.000
1745527214.912,-24.414,-24.902,-22.949,-36.133,0.000
1745527214.916,-20.508,-24.414,-20.020,-17.578,0.000
1745527214.920,-13.672,-23.926,-24.414,-9.766,0.000
1745527214.924,-11.230,-24.414,-30.762,-10.254,0.000
1745527214.928,-6.348,-20.508,-27.344,-17.090,0.000
1745527214.932,-1.465,-20.020,-22.949,-18.555,0.000
1745527214.936,-3.906,-20.020,-17.090,-9.766,0.000
1745527214.940,-6.348,-22.949,-12.695,-2.441,0.000
1745527214.944,-0.977,-20.020,-15.137,0.488,0.000
1745527214.947,-0.488,-16.113,-11.719,3.418,0.000
1745527214.951,-7.812,-14.648,-10.254,4.883,0.000
1745527214.955,-5.371,-11.230,-11.230,2.441,0.000
1745527214.959,-0.977,-14.648,-10.254,-1.465,0.000
1745527214.963,-6.836,-16.113,-12.207,-9.277,0.000
1745527214.967,-6.836,-19.043,-17.578,-14.648,0.000
1745527214.971,-2.441,-22.461,-16.602,-21.484,0.000
1745527214.975,-6.836,-18.555,-15.625,-20.996,0.000
1745527214.979,-12.207,-20.996,-17.578,-15.625,0.000
1745527214.983,-15.625,-20.996,-16.113,-14.160,0.000
1745527214.986,-17.578,-20.996,-19.043,-18.066,0.000
1745527214.990,-11.230,-25.879,-24.902,-22.461,0.000
1745527214.994,-16.113,-30.273,-27.344,-26.855,0.000
1745527214.998,-18.555,-28.809,-24.414,-22.949,0.000
1745527215.002,-7.812,-22.949,-20.996,-15.625,0.000
1745527215.006,-10.742,-20.996,-19.531,-12.207,0.000
1745527215.010,-13.672,-20.996,-17.578,-12.207,0.000
1745527215.014,-10.254,-26.855,-19.531,-18.066,0.000
1745527215.018,-10.254,-34.668,-25.879,-15.137,0.000
1745527215.022,-13.672,-29.297,-22.949,-8.789,0.000
1745527215.026,-12.207,-22.949,-14.648,-14.648,0.000
1745527215.029,-5.859,-24.902,-16.113,-19.531,0.000
1745527215.033,-2.441,-31.250,-21.484,-21.484,0.000
1745527215.037,0.000,-31.250,-20.020,-26.367,0.000
1745527215.041,0.000,-23.438,-18.066,-24.902,0.000
1745527215.045,0.000,-20.508,-24.414,-29.297,0.000
1745527215.049,0.000,-23.438,-24.414,-32.227,0.000
1745527215.053,0.000,-23.438,-21.973,-30.273,0.000
1745527215.057,0.000,-24.902,-24.414,-31.250,0.000
1745527215.061,0.000,-29.297,-29.297,-39.551,0.000
1745527215.065,0.000,-36.621,-34.668,-44.434,0.000
1745527215.069,0.000,-39.551,-36.621,-41.992,0.000
1745527215.072,0.000,-34.668,-37.109,-44.434,0.000
1745527215.076,0.000,-33.203,-35.156,-49.805,0.000
1745527215.080,0.000,-39.062,-33.203,-48.828,0.000
1745527215.084,-41.504,-41.016,-31.738,-37.598,0.000
1745527215.088,-41.016,-43.945,-37.109,-37.598,0.000
1745527215.092,-39.551,-40.039,-40.039,-31.250,0.000
1745527215.096,-37.109,-37.598,-35.156,-20.996,0.000
1745527215.100,-40.527,-34.180,-31.250,-36.133,0.000
1745527215.104,-41.016,-24.414,-29.297,-38.574,0.000
1745527215.108,-40.039,-28.320,-31.250,-24.902,0.000
1745527215.111,-37.109,-37.598,-35.645,-33.691,0.000
1745527215.115,-33.691,-40.039,-35.645,-40.039,0.000
1745527215.119,-30.762,-35.645,-32.227,-27.344,0.000
1745527215.123,-30.273,-28.320,-31.250,-23.926,0.000
1745527215.127,-37.598,-27.832,-34.180,-47.363,0.000
1745527215.131,-47.363,-31.738,-35.156,-67.871,0.000
1745527215.135,-54.688,-32.227,-37.109,-65.918,0.000
1745527215.139,-66.406,-35.645,-41.504,-62.500,0.000
1745527215.143,-68.848,-39.062,-42.480,-59.570,0.000
1745527215.147,-67.871,-33.691,-42.969,-50.781,0.000
1745527215.151,-64.941,-29.785,-46.387,-44.434,0.000
1745527215.154,-63.965,-37.598,-54.199,-64.941,0.000
1745527215.158,-58.594,-41.016,-55.664,-74.707,0.000
1745527215.162,-50.781,-37.109,-51.270,-59.082,0.000
1745527215.166,-48.828,-36.133,-51.270,-55.176,0.000
1745527215.170,-46.875,-36.133,-53.223,-54.688,0.000
1745527215.174,-45.410,-34.180,-51.758,-49.805,0.000
1745527215.178,-46.875,-27.344,-49.805,-45.410,0.000
1745527215.182,-46.387,-30.762,-48.828,-44.922,0.000
1745527215.186,-48.340,-37.109,-47.363,-47.363,0.000
1745527215.190,-47.363,-33.691,-48.340,-47.852,0.000
1745527215.194,-47.363,-32.227,-45.410,-46.875,0.000
1745527215.197,-50.293,-32.227,-42.969,-51.758,0.000
1745527215.201,-44.434,-36.621,-45.410,-57.617,0.000
1745527215.205,-43.457,-41.016,-45.410,-58.594,0.000
1745527215.209,-43.457,-36.133,-40.039,-49.316,0.000
1745527215.213,-42.969,-29.785,-32.715,-37.598,0.000
1745527215.217,-40.527,-28.809,-31.738,-36.621,0.000
1745527215.221,-37.598,-29.297,-31.738,-38.086,0.000
1745527215.225,-35.645,-30.762,-34.180,-38.574,0.000
1745527215.229,-34.668,-29.297,-33.203,-36.621,0.000
1745527215.233,-33.691,-28.320,-27.832,-36.621,0.000
1745527215.237,-34.180,-34.180,-30.273,-33.203,0.000
1745527215.240,-40.527,-35.645,-33.203,-34.668,0.000
1745527215.244,-42.480,-30.762,-30.762,-29.785,0.000
1745527215.248,-43.457,-38.086,-28.809,-21.973,0.000
1745527215.252,-41.992,-44.922,-24.414,-15.625,0.000
1745527215.256,-35.645,-33.203,-18.555,-16.602,0.000
1745527215.260,-39.551,-31.250,-25.879,-39.551,0.000
1745527215.264,-37.109,-32.715,-31.250,-48.828,0.000
1745527215.268,-28.809,-30.273,-29.297,-35.645,0.000
1745527215.272,-31.738,-29.785,-25.391,-31.250,0.000
1745527215.276,-32.227,-31.250,-23.926,-32.715,0.000
1745527215.279,-27.832,-35.156,-27.832,-30.762,0.000
1745527215.283,-28.320,-37.109,-25.391,-32.227,0.000
1745527215.287,-27.344,-37.109,-21.973,-35.156,0.000
1745527215.291,-28.809,-35.156,-20.508,-32.227,0.000
1745527215.295,-28.320,-31.250,-20.508,-31.250,0.000
1745527215.299,-28.809,-33.691,-22.461,-31.250,0.000
1745527215.303,-28.809,-36.133,-22.949,-25.391,0.000
1745527215.307,-28.809,-37.109,-31.738,-28.320,0.000
1745527215.311,-25.391,-35.645,-31.738,-28.320,0.000
1745527215.315,-27.832,-37.598,-22.461,-27.344,0.000
1745527215.319,-36.133,-38.086,-21.973,-22.949,0.000
1745527215.322,-37.109,-33.203,-21.484,-17.578,0.000
1745527215.326,-31.738,-26.367,-14.648,-15.625,0.000
1745527215.330,-30.273,-28.809,-11.230,-14.160,0.000
1745527215.334,-34.668,-39.551,-14.160,-20.996,0.000
1745527215.338,-33.203,-36.133,-16.113,-29.297,0.000
1745527215.342,-29.297,-31.738,-19.531,-27.832,0.000
1745527215.346,-33.691,-40.527,-24.902,-28.320,0.000
1745527215.350,-37.109,-41.016,-28.320,-25.879,0.000
1745527215.354,-28.320,-37.109,-25.391,-20.996,0.000
1745527215.358,-22.461,-36.133,-19.531,-18.066,0.000
1745527215.361,-24.902,-29.297,-14.648,-16.113,0.000
1745527215.365,-22.949,-27.344,-9.766,-18.066,0.000
1745527215.369,-20.020,-32.715,-15.625,-17.578,0.000
1745527215.373,-26.855,-35.156,-24.414,-18.555,0.000
1745527215.377,-31.738,-30.273,-27.344,-24.414,0.000
1745527215.381,-34.180,-32.715,-23.438,-29.785,0.000
1745527215.385,-37.109,-34.668,-25.879,-39.551,0.000
1745527215.389,-39.062,-29.785,-27.832,-40.039,0.000
1745527215.393,-39.062,-37.109,-25.879,-34.668,0.000
1745527215.397,-39.062,-41.992,-28.320,-43.945,0.000
1745527215.401,-35.156,-40.039,-29.297,-49.316,0.000
1745527215.404,-29.297,-36.621,-25.879,-34.668,0.000
1745527215.408,-32.227,-30.762,-23.926,-19.531,0.000
1745527215.412,0.000,-31.738,-23.438,-17.090,0.000
1745527215.416,0.000,-33.691,-25.391,-11.719,0.000
1745527215.420,0.000,-30.762,-28.320,-14.648,0.000
1745527215.424,0.000,-33.203,-28.320,-40.527,0.000
1745527215.428,0.000,-29.785,-31.738,-44.434,0.000
1745527215.432,0.000,-19.531,-30.273,-34.180,0.000
1745527215.436,0.000,-19.043,-27.832,-31.738,0.000
1745527215.440,0.000,-20.996,-31.250,-25.391,0.000
1745527215.443,0.000,-24.414,-32.715,-26.855,0.000
1745527215.447,0.000,-24.902,-30.273,-33.691,0.000
1745527215.451,0.000,-22.461,-28.809,-30.273,0.000
1745527215.455,0.000,-25.879,-29.297,-25.879,0.000
1745527215.459,-34.668,-25.391,-24.414,-23.438,0.000
1745527215.463,-26.367,-20.508,-24.414,-20.996,0.000
1745527215.467,-25.391,-21.484,-32.227,-31.250,0.000
1745527215.471,-28.809,-25.391,-33.203,-32.227,0.000
1745527215.475,-25.879,-24.414,-28.320,-24.414,0.000
1745527215.479,-19.043,-21.973,-25.879,-22.461,0.000
1745527215.483,-18.066,-27.344,-32.227,-29.297,0.000
1745527215.486,-25.879,-37.598,-35.156,-29.297,0.000
1745527215.490,-30.273,-42.480,-34.668,-25.391,0.000
1745527215.494,-34.180,-43.945,-34.668,-31.738,0.000
1745527215.498,-37.109,-44.434,-35.156,-44.922,0.000
1745527215.502,-42.480,-46.387,-37.598,-47.363,0.000
1745527215.506,-46.875,-46.875,-39.551,-39.062,0.000
1745527215.510,-46.387,-43.457,-38.574,-40.527,0.000
1745527215.514,-41.016,-45.898,-35.645,-39.551,0.000
1745527215.518,-43.945,-46.875,-35.645,-33.203,0.000
1745527215.522,-43.945,-47.852,-35.645,-27.344,0.000
1745527215.526,-35.156,-44.922,-35.156,-23.438,0.000
1745527215.529,-30.762,-35.645,-35.156,-21.484,0.000
1745527215.533,-35.645,-42.480,-39.062,-35.645,0.000
1745527215.537,-34.180,-46.387,-35.156,-33.203,0.000
1745527215.541,-17.090,-37.109,-28.809,-11.719,0.000
1745527215.545,-9.766,-29.785,-26.367,-2.930,0.000
1745527215.549,-6.348,-32.227,-28.809,-4.883,0.000
1745527215.553,1.465,-33.203,0.000,-13.184,0.000
1745527215.557,-0.977,-28.809,0.000,-21.973,0.000
1745527215.561,7.812,-29.785,0.000,-21.973,0.000
1745527215.565,12.695,-31.738,0.000,-19.531,0.000
1745527215.569,2.441,-33.203,0.000,-19.531,0.000
1745527215.572,-4.883,-32.227,0.000,-15.137,0.000
1745527215.576,-0.977,-26.855,0.000,-8.789,0.000
1745527215.580,-0.977,-26.367,0.000,-14.160,0.000
1745527215.584,-9.766,-30.273,0.000,-16.113,0.000
1745527215.588,-7.812,-34.180,0.000,-5.371,0.000
1745527215.592,3.906,-25.879,0.000,-1.465,0.000
1745527215.596,6.836,-17.090,0.000,-1.465,0.000
1745527215.600,6.348,-17.090,-18.066,0.488,0.000
1745527215.604,4.883,-17.090,-21.484,5.859,0.000
1745527215.608,4.395,-14.648,-20.508,7.812,0.000
1745527215.611,5.859,-12.695,-22.461,-5.371,0.000
1745527215.615,3.906,-15.625,-24.414,-18.066,0.000
1745527215.619,1.465,-16.602,-20.996,-19.043,0.000
1745527215.623,-3.418,-20.508,-21.484,-12.207,0.000
1745527215.627,-6.836,-28.320,-26.855,-8.789,0.000
1745527215.631,-8.301,-31.250,-28.809,-10.254,0.000
1745527215.635,-11.230,-29.785,-24.414,-9.277,0.000
1745527215.639,-17.578,-29.297,-20.996,-5.859,0.000
1745527215.643,-15.625,-30.273,-17.090,-4.883,0.000
1745527215.647,-14.648,-34.180,-20.996,-8.301,0.000
1745527215.651,-19.043,-34.180,-28.320,-17.090,0.000
1745527215.654,-19.531,-32.715,-30.273,-13.184,0.000
1745527215.658,-23.438,-33.691,-28.320,-16.113,0.000
1745527215.662,-28.809,-35.156,-29.297,-21.484,0.000
1745527215.666,-20.996,-31.250,-29.785,-17.090,0.000
1745527215.670,-17.578,-20.508,-28.809,-24.414,0.000
1745527215.674,-18.066,-23.926,-27.832,-21.973,0.000
1745527215.678,-23.438,-38.574,-31.250,-19.531,0.000
1745527215.682,-26.367,-36.133,-32.227,-23.926,0.000
1745527215.686,-24.414,-27.832,-32.227,-23.438,0.000
1745527215.690,-28.320,-24.414,-30.762,-23.438,0.000
1745527215.694,-32.227,-26.367,-31.250,-25.879,0.000
1745527215.697,-34.180,-28.809,-33.691,-23.926,0.000
1745527215.701,-29.785,-26.855,-36.621,-27.344,0.000
1745527215.705,-28.320,-27.344,-37.598,-34.180,0.000
1745527215.709,-30.273,-27.832,-37.598,-34.180,0.000
1745527215.713,-25.879,-21.484,-35.156,-28.809,0.000
1745527215.717,-24.902,-22.949,-34.180,-23.438,0.000
1745527215.721,-25.879,-30.762,-34.668,-25.879,0.000
1745527215.725,-20.996,-25.391,-35.156,-30.273,0.000
1745527215.729,-16.113,-22.461,-33.691,-26.367,0.000
1745527215.733,-25.879,-32.227,-29.297,-23.438,0.000
1745527215.736,-54.688,-42.480,-24.902,-36.133,0.000
1745527215.740,0.000,-45.898,-20.996,-57.129,0.000
1745527215.744,0.000,-47.363,-18.555,-57.129,0.000
1745527215.748,0.000,-43.457,-19.043,-47.852,0.000
1745527215.752,0.000,-39.062,-21.973,-45.898,0.000
1745527215.756,0.000,-36.621,-19.043,-37.598,0.000
1745527215.760,0.000,-31.738,-17.578,-33.203,0.000
1745527215.764,0.000,-36.133,-18.555,-31.738,0.000
1745527215.768,0.000,-44.434,-24.414,-29.297,0.000
1745527215.772,0.000,-42.480,-24.902,-24.902,0.000
1745527215.775,0.000,-38.574,-20.996,-20.996,0.000
1745527215.779,0.000,-40.039,-26.855,-33.691,0.000
1745527215.783,0.000,-41.992,-31.738,-41.992,0.000
1745527215.787,-47.363,-41.992,-29.297,-38.086,0.000
1745527215.791,-41.992,-43.457,-28.809,-40.039,0.000
1745527215.795,-37.598,-42.969,-32.227,-40.039,0.000
1745527215.799,-32.227,-37.598,-29.297,-37.109,0.000
1745527215.803,-26.855,-35.645,-27.344,-31.738,0.000
1745527215.807,-33.691,-39.062,-29.785,-26.855,0.000
1745527215.811,-41.992,-41.992,-32.227,-23.438,0.000
1745527215.815,-39.062,-42.969,-30.273,-21.484,0.000
1745527215.818,-40.039,-42.969,-33.691,-31.738,0.000
1745527215.822,-41.016,-30.273,-36.621,-33.691,0.000
1745527215.826,-24.414,-21.973,-30.273,-26.855,0.000
1745527215.830,-31.250,-26.367,-20.996,-43.945,0.000
1745527215.834,-59.570,-34.180,-17.578,-62.012,0.000
1745527215.838,-63.477,-33.691,-17.578,-63.477,0.000
1745527215.842,-57.617,-28.320,-17.090,-53.223,0.000
1745527215.846,-65.918,-37.598,-18.555,-44.434,0.000
1745527215.850,-84.473,-48.340,-20.020,-51.758,0.000
1745527215.854,-82.031,-46.387,-17.578,-64.941,0.000
1745527215.858,-70.801,-51.758,-20.508,-77.637,0.000
1745527215.861,-67.383,-55.664,-22.461,-70.801,0.000
1745527215.865,-60.547,-50.781,-23.926,-62.988,0.000
1745527215.869,-62.500,-51.758,-31.738,-64.941,0.000
1745527215.873,-66.406,-51.270,-34.668,-61.035,0.000
1745527215.877,-62.012,-48.340,-31.250,-57.617,0.000
1745527215.881,-57.617,-45.410,-31.250,-52.246,0.000
1745527215.885,-51.758,-39.062,-32.715,-45.898,0.000
1745527215.889,-48.828,-38.086,-34.668,-48.828,0.000
1745527215.893,-45.898,-41.504,-34.668,-56.641,0.000
1745527215.897,-41.992,-37.109,-29.785,-51.270,0.000
1745527215.901,-48.340,-35.645,-32.715,-43.945,0.000
1745527215.904,-44.434,-39.551,-34.668,-43.457,0.000
1745527215.908,-33.691,-42.969,-30.762,-40.527,0.000
1745527215.912,-36.621,-44.434,-30.273,-38.574,0.000
1745527215.916,-44.434,-42.480,-37.598,-32.227,0.000
1745527215.920,-42.480,-35.156,-34.180,-29.297,0.000
1745527215.924,-34.668,-29.297,-28.809,-30.273,0.000
1745527215.928,0.000,-36.133,-31.738,-27.832,0.000
1745527215.932,0.000,-42.969,-33.203,-32.715,0.000
1745527215.936,0.000,-42.969,-35.156,-39.062,0.000
1745527215.940,0.000,-31.738,-31.738,-35.156,0.000
1745527215.943,0.000,-24.902,-30.762,-29.297,0.000
1745527215.947,0.000,-31.250,-32.715,-28.809,0.000
1745527215.951,0.000,-36.621,-28.320,-28.320,0.000
1745527215.955,0.000,-41.016,-28.809,-28.809,0.000
1745527215.959,0.000,-37.598,-25.879,-26.855,0.000
1745527215.963,0.000,-33.203,-23.926,-27.832,0.000
1745527215.967,0.000,-32.715,-23.438,-24.414,0.000
1745527215.971,0.000,-33.691,-23.926,-20.020,0.000
1745527215.975,-29.297,-33.691,-23.438,-16.602,0.000
1745527215.979,-31.250,-35.156,-25.391,-16.602,0.000
1745527215.983,-31.250,-39.062,-28.809,-23.926,0.000
1745527215.986,-32.715,-34.180,-26.855,-32.227,0.000
1745527215.990,-26.855,-29.785,-29.785,-27.832,0.000
1745527215.994,-24.414,-29.297,-31.250,-28.320,0.000
1745527215.998,-37.598,-32.227,-30.762,-40.039,0.000
1745527216.002,-34.668,-32.227,-32.715,-40.039,0.000
1745527216.006,-36.133,-35.156,-35.645,-45.898,0.000
1745527216.010,-41.504,-38.574,-41.016,-52.246,0.000
1745527216.014,-31.250,-37.109,-38.086,-41.992,0.000
1745527216.018,-28.320,-38.574,-39.551,-39.062,0.000
1745527216.022,-37.109,-41.504,-46.387,-48.340,0.000
1745527216.026,-38.574,-41.504,-45.898,-46.875,0.000
1745527216.029,-35.645,-40.039,-41.992,-39.062,0.000
1745527216.033,-35.645,-35.156,-31.738,-25.879,0.000
1745527216.037,-35.645,-37.598,-26.855,-13.184,0.000
1745527216.041,-28.809,-34.180,-27.832,-24.414,0.000
1745527216.045,-28.320,-30.273,-27.832,-38.574,0.000
1745527216.049,-32.715,-35.645,-34.180,-41.992,0.000
1745527216.053,-33.203,-39.062,-35.156,-38.086,0.000
1745527216.057,-23.438,-34.180,-28.320,-29.297,0.000
1745527216.061,-20.996,-33.691,-27.344,-27.344,0.000
1745527216.065,-36.133,-34.668,-30.273,-35.645,0.000
1745527216.069,0.000,-29.297,-31.738,-41.992,0.000
1745527216.072,0.000,-27.832,-32.227,-39.551,0.000
1745527216.076,0.000,-26.855,-31.738,-30.762,0.000
1745527216.080,0.000,-33.203,-30.762,-31.250,0.000
1745527216.084,0.000,-33.691,-27.832,-39.551,0.000
1745527216.088,0.000,-25.391,-27.344,-40.039,0.000
1745527216.092,0.000,-29.297,-30.273,-33.203,0.000
1745527216.096,0.000,-36.621,-34.668,-27.832,0.000
1745527216.100,0.000,-35.156,-32.227,-23.438,0.000
1745527216.104,0.000,-32.227,-27.344,-34.180,0.000
1745527216.107,0.000,-34.180,-26.855,-35.156,0.000
1745527216.111,0.000,-38.574,-30.273,-33.203,0.000
1745527216.115,-34.668,-35.645,-34.668,-42.480,0.000
1745527216.119,-41.016,-35.645,-34.668,-50.781,0.000
1745527216.123,-38.086,-29.785,-30.762,-49.805,0.000
1745527216.127,-32.227,-27.344,-32.227,-42.969,0.000
1745527216.131,-33.203,-32.227,-37.598,-32.227,0.000
1745527216.135,-28.320,-23.926,-34.180,-16.602,0.000
1745527216.139,-28.809,-21.484,-33.691,-5.859,0.000
1745527216.143,-32.715,-31.250,-37.598,-12.695,0.000
1745527216.147,-30.762,-33.203,-32.715,-30.762,0.000
1745527216.150,-20.020,-29.785,-28.320,-39.551,0.000
1745527216.154,-21.973,-31.738,-32.227,-47.363,0.000
1745527216.158,-33.203,-35.645,-36.133,-45.898,0.000
1745527216.162,-33.203,-35.645,-34.180,-39.062,0.000
1745527216.166,-29.785,-38.574,-28.809,-30.273,0.000
1745527216.170,-23.438,-37.109,-26.855,-22.461,0.000
1745527216.174,-22.461,-27.832,-26.855,-11.719,0.000
1745527216.178,-26.855,-29.785,-31.738,-9.277,0.000
1745527216.182,-20.996,-28.320,-30.762,-21.484,0.000
1745527216.186,-6.836,-19.043,-33.691,-24.902,0.000
1745527216.190,6.348,-25.391,-38.086,-10.254,0.000
1745527216.193,-2.930,-32.715,-23.926,0.977,0.000
1745527216.197,-39.551,-38.086,-15.137,-20.508,0.000
1745527216.201,-61.523,-44.434,-17.578,-40.039,0.000
1745527216.205,-69.824,-46.387,-15.625,-42.480,0.000
1745527216.209,-73.242,-46.387,-14.648,-51.270,0.000
1745527216.213,-74.219,-50.781,-18.066,-56.152,0.000
1745527216.217,-81.055,-56.152,-12.695,-51.758,0.000
1745527216.221,-86.426,-48.340,-7.324,-52.734,0.000
1745527216.225,-81.055,-45.898,-8.789,-48.340,0.000
1745527216.229,-75.684,-48.340,-7.812,-43.457,0.000
1745527216.233,-83.496,-55.176,-16.602,-48.340,0.000
1745527216.236,-84.961,-59.082,-21.973,-43.457,0.000
1745527216.240,-76.660,-55.664,-19.043,-37.109,0.000
1745527216.244,-67.383,-54.688,-19.043,-33.691,0.000
1745527216.248,-59.082,-48.828,-19.043,-37.109,0.000
1745527216.252,-56.641,-43.945,-17.578,-44.434,0.000
1745527216.256,-54.688,-42.969,-11.230,-45.410,0.000
1745527216.260,-47.852,-43.945,-13.184,-42.969,0.000
1745527216.264,-39.062,-42.480,-23.926,-38.086,0.000
1745527216.268,-40.527,-41.504,-26.367,-36.621,0.000
1745527216.272,-52.734,-44.434,-27.832,-46.875,0.000
1745527216.275,-50.293,-42.969,-23.926,-53.711,0.000
1745527216.279,-43.457,-38.574,-22.949,-46.875,0.000
1745527216.283,-37.109,-33.203,-24.414,-40.527,0.000
1745527216.287,-35.156,-36.621,-25.879,-45.410,0.000
1745527216.291,-41.016,-33.691,-25.879,-45.898,0.000
1745527216.295,-43.945,-21.973,-22.461,-41.992,0.000
1745527216.299,-42.969,-26.855,-28.320,-38.574,0.000
1745527216.303,-36.133,-28.320,-26.855,-32.715,0.000
1745527216.307,-35.645,-28.320,-22.461,-28.809,0.000
1745527216.311,-38.574,-30.273,-23.438,-22.949,0.000
1745527216.315,-39.062,-36.621,-24.414,-23.438,0.000
1745527216.318,-37.109,-37.109,-23.438,-26.855,0.000
1745527216.322,-37.598,-31.250,-21.484,-18.555,0.000
1745527216.326,-40.039,-37.598,-25.879,-11.719,0.000
1745527216.330,-40.039,-43.945,-26.367,-22.461,0.000
1745527216.334,-42.969,-41.504,-21.484,-25.391,0.000
1745527216.338,-47.852,-40.527,-23.926,-22.949,0.000
1745527216.342,-38.086,-38.086,-19.043,-34.180,0.000
1745527216.346,-35.645,-38.086,-16.602,-37.598,0.000
1745527216.350,-39.551,-32.715,-21.973,-30.273,0.000
1745527216.354,-36.621,-30.762,-22.949,-27.832,0.000
1745527216.358,-38.086,-35.645,-20.508,-20.508,0.000
1745527216.361,-38.574,-34.668,-20.020,-17.090,0.000
1745527216.365,-35.156,-30.762,-22.949,-24.902,0.000
1745527216.369,-41.016,-25.879,-26.855,-27.344,0.000
1745527216.373,-41.504,-32.227,-26.855,-26.855,0.000
1745527216.377,-43.457,-40.527,-25.879,-28.320,0.000
1745527216.381,-42.969,-34.180,-27.832,-38.574,0.000
1745527216.385,-39.062,-28.809,-30.273,-44.434,0.000
1745527216.389,-40.527,-31.250,-33.691,-44.434,0.000
1745527216.393,-39.062,-36.133,-35.645,-55.176,0.000
1745527216.397,-45.410,-41.016,0.000,-60.059,0.000
1745527216.401,-53.223,-37.598,0.000,-59.082,0.000
1745527216.404,-49.805,-32.715,0.000,-53.711,0.000
1745527216.408,-46.875,-31.250,0.000,-47.363,0.000
1745527216.412,-42.969,-35.645,0.000,-43.457,0.000
1745527216.416,-38.574,-35.645,0.000,-41.016,0.000
1745527216.420,-38.574,-34.668,0.000,-41.504,0.000
1745527216.424,-40.527,-37.109,0.000,-44.922,0.000
1745527216.428,-38.574,-39.062,0.000,-44.434,0.000
1745527216.432,-25.879,-33.203,0.000,-38.574,0.000
1745527216.436,-25.879,-30.762,0.000,-36.133,0.000
1745527216.440,-29.297,-33.691,0.000,-29.785,0.000
1745527216.443,-32.715,-36.621,-22.461,-20.996,0.000
1745527216.447,-31.738,-34.180,-25.391,-3.906,0.000
1745527216.451,-28.320,-20.508,-25.391,-0.488,0.000
1745527216.455,-27.344,-16.602,-28.320,-26.367,0.000
1745527216.459,-20.508,-20.508,-28.809,-38.574,0.000
1745527216.463,-21.484,-22.461,-35.156,-66.895,0.000
1745527216.467,-23.438,-21.973,-38.086,-68.359,0.000
1745527216.471,-22.461,-28.320,-34.180,-48.828,0.000
1745527216.475,-23.926,-32.227,-36.133,-38.086,0.000
1745527216.479,-13.184,-22.949,-33.691,-26.367,0.000
1745527216.482,-10.254,-20.020,-31.738,-24.414,0.000
1745527216.486,-19.043,-18.555,-39.062,-30.273,0.000
1745527216.490,-18.066,-17.090,-42.969,-29.785,0.000
1745527216.494,-17.090,-20.508,-39.062,-20.020,0.000
1745527216.498,-24.902,-22.949,-35.645,-16.602,0.000
1745527216.502,-31.250,-23.926,-36.621,-20.996,0.000
1745527216.506,-34.668,-32.715,-41.016,-26.855,0.000
1745527216.510,-32.715,-31.738,-40.527,-23.926,0.000
1745527216.514,-20.996,-23.438,-38.086,-12.695,0.000
1745527216.518,-18.555,-32.227,-41.992,-11.719,0.000
1745527216.522,-25.879,-34.180,-40.039,-16.113,0.000
1745527216.525,-22.461,-32.227,-35.156,-17.578,0.000
1745527216.529,-11.230,-30.273,-33.691,-13.184,0.000
1745527216.533,-17.090,-32.227,-32.715,-19.531,0.000
1745527216.537,-20.996,-33.691,-32.227,-24.414,0.000
1745527216.541,-16.602,-28.320,-29.785,-16.602,0.000
1745527216.545,-21.973,-32.227,-31.250,-16.113,0.000
1745527216.549,-23.926,-33.691,-29.785,-20.508,0.000
1745527216.553,-20.996,-32.715,-23.926,-13.672,0.000
1745527216.557,-23.926,-28.320,-26.367,-11.719,0.000
1745527216.561,-25.879,-21.973,-27.344,-17.090,0.000
1745527216.565,-23.926,-29.297,-27.344,-12.207,0.000
1745527216.568,-20.020,-33.691,-26.855,-11.230,0.000
1745527216.572,-24.902,-30.273,-25.391,-16.113,0.000
1745527216.576,-35.156,-35.156,-28.320,-20.508,0.000
1745527216.580,-25.879,-37.109,-33.691,-14.648,0.000
1745527216.584,-17.090,-29.785,-35.645,-15.137,0.000
1745527216.588,-21.973,-21.973,-33.203,-23.438,0.000
1745527216.592,-19.531,-26.855,-39.551,-31.250,0.000
1745527216.596,-13.672,-25.391,-43.945,-27.344,0.000
1745527216.600,-8.789,-16.113,-43.457,-22.461,0.000
1745527216.604,-9.766,-7.324,-48.340,-24.902,0.000
1745527216.607,-6.348,-9.766,-54.199,-25.391,0.000
1745527216.611,-6.836,-17.090,-55.176,-25.879,0.000
1745527216.615,-9.277,-15.625,-52.246,-33.203,0.000
1745527216.619,-8.301,-14.648,-53.223,-29.297,0.000
1745527216.623,-9.277,-17.090,-52.246,-26.855,0.000
1745527216.627,-9.277,-17.578,-48.340,-28.809,0.000
1745527216.631,-10.742,-17.090,-48.340,-26.855,0.000
1745527216.635,-10.254,-15.137,-47.852,-44.434,0.000
1745527216.639,-8.789,-18.066,-47.363,-54.688,0.000
1745527216.643,-6.836,-24.902,-50.293,-52.246,0.000
1745527216.647,-6.836,-22.461,-43.945,-43.945,0.000
1745527216.650,-12.207,-19.043,-38.574,-32.227,0.000
1745527216.654,-15.625,-22.949,-45.898,-32.227,0.000
1745527216.658,-17.578,-29.297,-46.875,-34.668,0.000
1745527216.662,-20.508,-31.738,-41.016,-36.133,0.000
1745527216.666,-17.578,-28.320,-38.086,-40.039,0.000
1745527216.670,-18.555,-25.879,-40.039,-38.086,0.000
1745527216.674,-24.902,-25.879,-42.480,-38.086,0.000
1745527216.678,-25.879,-24.902,-41.504,-41.016,0.000
1745527216.682,-22.461,-25.879,-41.992,-34.668,0.000
1745527216.686,-21.973,-27.344,-40.527,-30.273,0.000
1745527216.690,-23.926,-29.785,-35.156,-22.949,0.000
1745527216.693,-21.484,-26.855,-33.203,-19.043,0.000
1745527216.697,-16.113,-24.414,-35.156,-19.043,0.000
1745527216.701,-12.695,-34.668,-37.109,-14.648,0.000
1745527216.705,-12.207,-37.109,-31.738,-7.812,0.000
1745527216.709,-16.113,-29.297,-26.367,-11.719,0.000
1745527216.713,-13.672,-23.926,-28.809,-20.020,0.000
1745527216.717,-16.602,-22.949,-33.691,-23.438,0.000
1745527216.721,-24.902,-28.809,-36.621,-26.367,0.000
1745527216.725,-25.879,-31.250,-34.668,-25.879,0.000
1745527216.729,-21.484,-31.250,-31.250,-22.461,0.000
1745527216.733,-22.461,-29.297,-25.391,-15.137,0.000
1745527216.736,-29.785,-30.762,-25.879,-7.812,0.000
1745527216.740,-37.109,-36.133,-29.297,-9.277,0.000
1745527216.744,-36.133,-31.250,-26.855,-16.602,0.000
1745527216.748,-35.645,-27.832,-25.391,-11.719,0.000
1745527216.752,-35.156,-34.180,-27.832,-19.531,0.000
1745527216.756,-36.133,-41.016,-34.180,-34.180,0.000
1745527216.760,-34.180,-39.551,-38.574,-30.273,0.000
1745527216.764,-34.180,-37.109,-37.598,-38.086,0.000
1745527216.768,-40.527,-35.645,-35.645,-44.922,0.000
1745527216.772,0.000,-31.250,0.000,-35.645,0.000
1745527216.775,0.000,-30.273,0.000,-30.762,0.000
1745527216.779,0.000,-34.180,0.000,-32.715,0.000
1745527216.783,0.000,-34.180,0.000,-36.621,0.000
1745527216.787,0.000,-29.297,0.000,-34.668,0.000
1745527216.791,0.000,-28.809,0.000,-31.738,0.000
1745527216.795,0.000,-36.133,0.000,-24.902,0.000
1745527216.799,0.000,-38.086,0.000,-29.785,0.000
1745527216.803,0.000,-34.180,0.000,-32.227,0.000
1745527216.807,0.000,-36.621,0.000,-24.902,0.000
1745527216.811,0.000,-38.574,0.000,-20.508,0.000
1745527216.814,0.000,-35.156,0.000,-22.949,0.000
1745527216.818,-17.090,-33.203,-32.715,0.000,0.000
1745527216.822,-16.602,-34.180,-34.668,0.000,0.000
1745527216.826,-16.113,-34.180,-33.203,0.000,0.000
1745527216.830,-19.531,-32.715,-30.762,0.000,0.000
1745527216.834,-27.832,-33.203,-31.250,0.000,0.000
1745527216.838,-34.668,-30.762,-29.785,0.000,0.000
1745527216.842,-29.297,-31.738,-29.297,0.000,0.000
1745527216.846,-27.832,-39.062,-34.668,0.000,0.000
1745527216.850,-32.715,-42.969,-40.527,0.000,0.000
1745527216.854,-31.250,-40.039,-37.598,0.000,0.000
1745527216.857,-32.227,-38.086,-30.762,0.000,0.000
1745527216.861,-25.391,-30.762,-28.320,0.000,0.000
1745527216.865,0.000,-35.645,0.000,-26.855,0.000
1745527216.869,0.000,-45.898,0.000,-34.180,0.000
1745527216.873,0.000,-36.621,0.000,-43.457,0.000
1745527216.877,0.000,-27.344,0.000,-35.645,0.000
1745527216.881,0.000,-25.391,0.000,-30.762,0.000
1745527216.885,0.000,-24.902,0.000,-25.879,0.000
1745527216.889,0.000,-24.902,0.000,-22.949,0.000
1745527216.893,0.000,-31.738,0.000,-34.180,0.000
1745527216.897,0.000,-29.785,0.000,-30.762,0.000
1745527216.900,0.000,-23.926,0.000,-29.297,0.000
1745527216.904,0.000,-32.227,0.000,-35.645,0.000
1745527216.908,0.000,-30.273,0.000,-26.855,0.000
1745527216.912,-20.996,-20.996,-18.066,-33.203,0.000
1745527216.916,-25.879,-24.414,-18.555,-32.715,0.000
1745527216.920,-22.461,-28.809,-19.043,-36.621,0.000
1745527216.924,-26.367,-32.715,-20.508,-38.574,0.000
1745527216.928,-30.273,-40.039,-24.414,-44.434,0.000
1745527216.932,-31.738,-33.203,-25.879,-41.504,0.000
1745527216.936,-36.133,-31.738,-28.320,-36.621,0.000
1745527216.939,-38.574,-43.457,-31.250,-43.945,0.000
1745527216.943,-39.062,-44.434,-29.785,-44.434,0.000
1745527216.947,-37.598,-41.992,-31.250,-41.016,0.000
1745527216.951,-33.691,-39.551,-28.320,-41.504,0.000
1745527216.955,-26.855,-37.598,-25.391,-40.527,0.000
1745527216.959,-27.344,-39.551,-26.367,0.000,0.000
1745527216.963,-25.391,-39.062,-30.762,0.000,0.000
1745527216.967,-23.438,-37.598,-31.738,0.000,0.000
1745527216.971,-36.133,-37.598,-31.250,0.000,0.000
1745527216.975,-43.457,-38.086,-32.227,0.000,0.000
1745527216.979,-40.527,-34.180,-28.809,0.000,0.000
1745527216.982,-36.621,-31.738,-33.691,0.000,0.000
1745527216.986,-34.180,-33.203,-33.203,0.000,0.000
1745527216.990,-44.922,-34.668,-28.809,0.000,0.000
1745527216.994,-48.828,-29.785,-29.785,0.000,0.000
1745527216.998,-39.551,-27.344,-27.344,0.000,0.000
1745527217.002,-34.668,-23.926,-26.855,0.000,0.000
1745527217.006,-34.668,-21.484,-31.250,-32.715,0.000
1745527217.010,-29.785,-19.531,-29.785,-39.062,0.000
1745527217.014,-39.062,-24.902,-31.250,-37.598,0.000
1745527217.018,-45.898,-31.250,-38.574,-37.109,0.000
1745527217.022,-46.875,-32.715,-40.039,-39.551,0.000
1745527217.025,-47.852,-29.297,-40.527,-40.527,0.000
1745527217.029,-43.945,-33.691,-39.551,-31.738,0.000
1745527217.033,-44.434,-38.086,-36.621,-30.762,0.000
1745527217.037,-43.457,-38.574,-33.203,-28.320,0.000
1745527217.041,-38.086,-38.574,-30.762,-28.809,0.000
1745527217.045,-28.809,-31.250,-30.273,-30.273,0.000
1745527217.049,-25.879,-28.809,-31.738,-24.414,0.000
1745527217.053,0.000,-34.180,-32.715,-19.043,0.000
1745527217.057,0.000,-38.086,-31.738,-14.648,0.000
1745527217.061,0.000,-31.738,-31.250,-20.020,0.000
1745527217.065,0.000,-32.227,-34.668,-32.227,0.000
1745527217.068,0.000,-30.762,-32.715,-30.273,0.000
1745527217.072,0.000,-24.902,-28.809,-24.414,0.000
1745527217.076,0.000,-33.691,-28.809,-22.461,0.000
1745527217.080,0.000,-35.156,-25.879,-27.344,0.000
1745527217.084,0.000,-29.785,-22.461,-36.133,0.000
1745527217.088,0.000,-25.879,-20.508,-35.156,0.000
1745527217.092,0.000,-23.926,-15.625,-33.691,0.000
1745527217.096,0.000,-29.785,-19.043,-36.621,0.000
1745527217.100,-34.668,-34.668,-25.391,-43.457,0.000
1745527217.104,-32.715,-40.039,-25.879,-46.387,0.000
1745527217.107,-39.062,-40.039,-29.297,-41.016,0.000
1745527217.111,-38.086,-37.598,-29.297,-36.133,0.000
1745527217.115,-35.645,-39.062,-28.320,-39.062,0.000
1745527217.119,-34.180,-40.039,-32.715,-33.203,0.000
1745527217.123,-26.367,-45.410,-36.621,-27.832,0.000
1745527217.127,-28.320,-41.504,-41.504,-34.668,0.000
1745527217.131,-33.203,-34.180,-43.945,-41.016,0.000
1745527217.135,-30.762,-35.156,-48.828,-44.922,0.000
1745527217.139,-22.461,-29.785,-49.316,-37.598,0.000
1745527217.143,-13.672,-27.344,-44.922,-20.996,0.000
1745527217.147,0.977,-20.020,-44.922,-15.625,0.000
1745527217.150,8.301,-18.066,-48.340,-15.137,0.000
1745527217.154,4.883,-20.996,-51.270,-6.348,0.000
1745527217.158,8.301,-18.066,-50.781,5.859,0.000
1745527217.162,11.719,-18.555,-51.270,8.789,0.000
1745527217.166,14.160,-17.090,-51.270,1.465,0.000
1745527217.170,26.855,-14.648,-43.945,18.066,0.000
1745527217.174,27.344,-16.602,-39.551,21.973,0.000
1745527217.178,17.578,-18.066,-41.504,1.953,0.000
1745527217.182,18.555,-18.066,-43.945,-9.766,0.000
1745527217.186,23.926,-17.578,-41.504,-2.441,0.000
1745527217.189,27.832,-12.695,-34.668,6.836,0.000
1745527217.193,22.461,-12.695,-32.715,-1.465,0.000
1745527217.197,21.484,-14.160,-34.668,-5.859,0.000
1745527217.201,14.160,-14.160,-35.645,-16.113,0.000
1745527217.205,4.395,-12.695,-38.086,-20.996,0.000
1745527217.209,3.418,-21.484,-43.457,-10.742,0.000
1745527217.213,3.906,-20.508,-37.109,-7.812,0.000
1745527217.217,5.371,-19.043,-29.785,-8.789,0.000
1745527217.221,8.301,-25.879,-33.691,-8.789,0.000
1745527217.225,10.254,-22.461,-35.645,-7.324,0.000
1745527217.229,6.836,-20.020,-36.133,-6.836,0.000
1745527217.232,4.883,-25.391,-37.598,-10.254,0.000
1745527217.236,-3.906,-29.785,-34.180,-3.906,0.000
1745527217.240,-5.859,-26.367,-33.691,3.418,0.000
1745527217.244,-5.859,-25.879,-41.504,-8.789,0.000
1745527217.248,-12.207,-24.414,-41.504,-13.672,0.000
1745527217.252,-11.230,-22.461,-40.527,-12.695,0.000
1745527217.256,-7.324,-18.555,-37.598,-6.348,0.000
1745527217.260,-3.906,-16.602,-30.762,-0.977,0.000
1745527217.264,1.465,-15.625,-27.344,-8.789,0.000
1745527217.268,-2.441,-17.090,-28.809,-6.348,0.000
1745527217.271,-9.277,-25.391,-28.809,-5.859,0.000
1745527217.275,-3.906,-20.996,-23.926,-9.766,0.000
1745527217.279,-5.371,-18.066,-24.902,-10.254,0.000
1745527217.283,-14.648,-23.438,-28.320,-13.184,0.000
1745527217.287,-19.043,-26.855,-26.855,-10.254,0.000
1745527217.291,-17.578,-26.367,-27.344,-9.277,0.000
1745527217.295,-18.555,-27.832,-27.832,-12.695,0.000
1745527217.299,-24.902,-27.344,-25.879,-7.324,0.000
1745527217.303,-31.250,-24.902,-21.484,-11.719,0.000
1745527217.307,-31.738,-19.531,-19.043,-25.879,0.000
1745527217.311,-34.180,-20.508,-25.391,-28.320,0.000
1745527217.314,-35.645,-30.273,-27.832,-29.785,0.000
1745527217.318,-28.809,-32.227,-26.855,-29.297,0.000
1745527217.322,-28.809,-30.273,-26.855,-24.414,0.000
1745527217.326,-31.250,-29.297,-29.297,-22.949,0.000
1745527217.330,-25.879,-28.320,-29.785,-16.602,0.000
1745527217.334,0.000,-31.250,-29.297,-18.066,0.000
1745527217.338,0.000,-33.691,-29.297,-29.785,0.000
1745527217.342,0.000,-32.227,-22.949,-22.949,0.000
1745527217.346,0.000,-30.762,-21.484,-19.043,0.000
1745527217.350,0.000,-29.785,-28.809,-26.855,0.000
1745527217.354,0.000,-24.414,-26.855,-27.832,0.000
1745527217.357,0.000,-29.785,-23.438,-25.879,0.000
1745527217.361,0.000,-31.738,-23.438,-20.508,0.000
1745527217.365,0.000,-28.809,-24.902,-20.508,0.000
1745527217.369,0.000,-27.344,-29.785,-18.066,0.000
1745527217.373,0.000,-23.438,-28.809,-17.578,0.000
1745527217.377,0.000,-25.879,-26.855,-20.020,0.000
1745527217.381,-20.996,-26.855,-25.879,-13.672,0.000
1745527217.385,-24.414,-25.879,-30.273,-13.184,0.000
1745527217.389,-38.086,-26.367,-29.785,-23.926,0.000
1745527217.393,-48.828,-30.762,-30.273,-41.992,0.000
1745527217.397,-44.434,-33.203,-35.645,-41.992,0.000
1745527217.400,-39.062,-22.461,-34.180,-37.598,0.000
1745527217.404,-36.621,-23.438,-37.598,-39.551,0.000
1745527217.408,-35.156,-35.645,-44.434,-41.016,0.000
1745527217.412,-30.273,-30.762,-41.016,-32.715,0.000
1745527217.416,-26.855,-27.344,-38.574,-27.832,0.000
1745527217.420,-34.668,-33.691,-39.062,-36.621,0.000
1745527217.424,-35.645,-34.668,-40.039,-42.969,0.000
1745527217.428,-41.016,-35.645,-43.457,-43.945,0.000
1745527217.432,-45.410,-33.691,-43.945,-43.457,0.000
1745527217.436,-35.156,-38.574,-43.457,-41.504,0.000
1745527217.439,-30.273,-37.598,-41.016,-39.551,0.000
1745527217.443,-32.715,-36.133,-42.969,-43.457,0.000
1745527217.447,-31.738,-36.621,-42.969,-43.945,0.000
1745527217.451,-31.738,-36.133,-42.969,-38.086,0.000
1745527217.455,-34.668,-39.062,-43.945,-35.645,0.000
1745527217.459,-33.691,-35.645,-39.062,-32.227,0.000
1745527217.463,-33.203,-37.109,-36.621,-34.180,0.000
1745527217.467,-38.574,-41.992,-35.645,-34.180,0.000
1745527217.471,-35.645,-34.180,-31.250,-34.668,0.000
1745527217.475,-30.762,-28.320,-27.344,-29.785,0.000
1745527217.479,-33.203,-32.715,-24.414,-27.832,0.000
1745527217.482,-30.273,-34.180,-25.391,-32.715,0.000
1745527217.486,-32.715,-39.062,-30.273,-32.227,0.000
1745527217.490,-35.156,-39.551,-32.227,-31.250,0.000
1745527217.494,-25.879,-32.715,-32.227,-30.273,0.000
1745527217.498,-28.809,-35.645,-34.180,-28.809,0.000
1745527217.502,-37.109,-41.016,-33.691,-24.414,0.000
1745527217.506,-33.691,-41.016,-36.621,-35.645,0.000
1745527217.510,-30.762,-42.969,-40.039,-42.480,0.000
1745527217.514,-36.133,-41.016,-39.551,-43.457,0.000
1745527217.518,-35.645,-31.738,-38.574,-40.527,0.000
1745527217.522,0.000,-25.391,-37.109,-34.180,0.000
1745527217.525,0.000,-28.809,-36.133,-34.668,0.000
1745527217.529,0.000,-34.180,-33.203,-32.227,0.000
1745527217.533,0.000,-31.738,-30.273,-24.414,0.000
1745527217.537,0.000,-27.344,-32.227,-23.926,0.000
1745527217.541,0.000,-27.832,-34.180,-29.785,0.000
1745527217.545,0.000,-32.227,-37.109,-32.227,0.000
1745527217.549,0.000,-33.691,-35.645,-29.297,0.000
1745527217.553,0.000,-36.133,-32.227,-25.879,0.000
1745527217.557,0.000,-38.086,-30.273,-34.180,0.000
1745527217.561,0.000,-39.062,-30.273,-38.574,0.000
1745527217.564,0.000,-39.551,-28.809,-25.879,0.000
1745527217.568,-26.855,-31.738,-25.391,-20.020,0.000
1745527217.572,-23.926,-25.391,-25.391,-40.527,0.000
1745527217.576,-30.762,-29.785,-29.785,-49.805,0.000
1745527217.580,-34.668,-35.645,-34.668,-41.016,0.000
1745527217.584,-27.832,-29.785,-34.180,-38.086,0.000
1745527217.588,-17.578,-21.973,-32.227,-40.039,0.000
1745527217.592,-18.066,-26.855,-35.156,-41.016,0.000
1745527217.596,-23.926,-33.691,-38.086,-34.668,0.000
1745527217.600,-30.762,-31.250,-39.551,-28.809,0.000
1745527217.603,-29.297,-25.391,-37.109,-25.391,0.000
1745527217.607,-31.738,-29.785,-34.180,-22.461,0.000
1745527217.611,-30.273,-32.227,-33.203,-27.832,0.000
1745527217.615,-24.414,-29.785,-32.227,-23.926,0.000
1745527217.619,-27.832,-33.203,-34.668,-20.508,0.000
1745527217.623,-34.668,-40.039,-37.109,-23.926,0.000
1745527217.627,-38.574,-36.621,-34.180,-29.785,0.000
1745527217.631,-39.551,-28.809,-33.203,-32.715,0.000
1745527217.635,-40.039,-22.949,-35.156,-27.344,0.000
1745527217.639,-41.504,-28.320,-38.086,-25.391,0.000
1745527217.643,-42.969,-39.551,-36.621,-33.691,0.000
1745527217.646,-40.527,-40.527,-29.785,-30.273,0.000
1745527217.650,-39.062,-37.598,-30.273,-20.020,0.000
1745527217.654,-36.133,-37.598,-31.738,-22.949,0.000
1745527217.658,-36.621,-43.945,-34.180,-30.762,0.000
1745527217.662,-31.250,-40.039,-39.062,-28.320,0.000
1745527217.666,-23.926,-33.691,-40.039,-30.273,0.000
1745527217.670,-17.578,-33.203,-35.645,-31.738,0.000
1745527217.674,-21.973,-37.109,-32.715,-33.203,0.000
1745527217.678,-27.344,-40.527,-36.133,-33.203,0.000
1745527217.682,-18.555,-30.762,-37.598,-28.809,0.000
1745527217.686,-17.090,-29.297,-34.180,-21.484,0.000
1745527217.689,-26.855,-40.039,-33.691,-24.902,0.000
1745527217.693,-27.344,-36.133,-33.203,-36.621,0.000
1745527217.697,-28.320,-31.250,-32.715,-37.109,0.000
1745527217.701,-25.391,-30.762,-28.809,-33.691,0.000
1745527217.705,-20.508,-28.320,-28.809,-34.668,0.000
1745527217.709,-19.531,-24.414,-29.297,-27.832,0.000
1745527217.713,-26.367,-21.973,-29.785,-16.113,0.000
1745527217.717,-33.691,-24.414,-28.809,-17.578,0.000
1745527217.721,-34.180,-32.227,-25.879,-24.902,0.000
1745527217.725,-33.691,-34.180,-27.344,-33.691,0.000
1745527217.729,-33.203,-33.691,-29.785,-36.621,0.000
1745527217.732,-31.738,-34.668,-26.855,-33.203,0.000
1745527217.736,-25.879,-37.598,-28.809,-32.227,0.000
1745527217.740,-13.672,-35.156,-29.297,-26.367,0.000
1745527217.744,-3.906,-30.273,-26.367,-18.066,0.000
1745527217.748,-14.648,-31.738,-18.555,-19.043,0.000
1745527217.752,-34.668,-34.180,-14.648,-22.461,0.000
1745527217.756,0.000,-34.180,-13.184,-24.414,0.000
1745527217.760,0.000,-37.109,-12.207,-20.508,0.000
1745527217.764,0.000,-38.086,-6.348,-20.508,0.000
1745527217.768,0.000,-39.062,-5.371,-26.855,0.000
1745527217.771,0.000,-39.551,-3.418,-21.484,0.000
1745527217.775,0.000,-41.016,-1.465,-19.043,0.000
1745527217.779,0.000,-46.387,-5.371,-23.438,0.000
1745527217.783,0.000,-53.223,0.000,-19.531,0.000
1745527217.787,0.000,-59.082,3.418,-13.672,0.000
1745527217.791,0.000,-59.570,-0.977,-14.160,0.000
1745527217.795,0.000,-59.082,-2.930,-19.043,0.000
1745527217.799,0.000,-54.688,0.000,-22.461,0.000
1745527217.803,-39.551,-48.828,0.000,0.000,0.000
1745527217.807,-40.039,-45.410,0.000,0.000,0.000
1745527217.811,-43.945,-47.852,0.000,0.000,0.000
1745527217.814,-46.875,-48.340,0.000,0.000,0.000
1745527217.818,-41.992,-45.410,0.000,0.000,0.000
1745527217.822,-41.016,-39.551,0.000,0.000,0.000
1745527217.826,-37.598,-34.668,0.000,0.000,0.000
1745527217.830,-37.598,-33.203,0.000,0.000,0.000
1745527217.834,-35.156,-34.668,0.000,0.000,0.000
1745527217.838,-33.691,-38.574,0.000,0.000,0.000
1745527217.842,-40.527,-45.898,0.000,0.000,0.000
1745527217.846,-41.504,-45.898,0.000,0.000,0.000
1745527217.850,-28.809,-38.086,-25.391,-33.203,0.000
1745527217.854,-25.879,-38.086,-20.020,-29.297,0.000
1745527217.857,-36.133,-37.598,-20.508,-39.551,0.000
1745527217.861,-41.504,-37.109,-26.855,-49.805,0.000
1745527217.865,-39.062,-38.086,-20.996,-40.039,0.000
1745527217.869,-51.758,-39.062,-13.184,-42.480,0.000
1745527217.873,-62.988,-38.086,-21.484,-57.617,0.000
1745527217.877,-73.730,-36.133,-22.461,-65.430,0.000
1745527217.881,-88.867,-41.992,-15.625,-70.801,0.000
1745527217.885,-96.191,-44.434,-19.531,-82.520,0.000
1745527217.889,-103.516,-44.434,-25.879,-100.586,0.000
1745527217.893,-118.164,-43.945,-32.227,-118.652,0.000
1745527217.897,0.000,-44.434,0.000,0.000,0.000
1745527217.900,0.000,-40.527,0.000,0.000,0.000
1745527217.904,0.000,-31.738,0.000,0.000,0.000
1745527217.908,0.000,-28.809,0.000,0.000,0.000
1745527217.912,0.000,-28.320,0.000,0.000,0.000
1745527217.916,0.000,-32.227,0.000,0.000,0.000
1745527217.920,0.000,-36.133,0.000,0.000,0.000
1745527217.924,0.000,-42.969,0.000,0.000,0.000
1745527217.928,0.000,-48.828,0.000,0.000,0.000
1745527217.932,0.000,-41.992,0.000,0.000,0.000
1745527217.936,0.000,-39.551,0.000,0.000,0.000
1745527217.939,0.000,-45.410,0.000,0.000,0.000
1745527217.943,-135.254,-45.410,-32.715,-129.395,0.000
1745527217.947,-147.949,-47.852,-28.320,-141.113,0.000
1745527217.951,-159.668,-51.758,-30.273,-152.344,0.000
1745527217.955,-166.016,-48.828,-38.574,-162.109,0.000
1745527217.959,-165.527,-44.434,-36.621,-166.992,0.000
1745527217.963,-173.828,-41.504,-25.391,-170.898,0.000
1745527217.967,-179.688,-35.645,-24.902,-172.852,0.000
1745527217.971,-177.246,-33.203,-34.180,-172.363,0.000
1745527217.975,-184.570,-35.645,-35.645,-172.363,0.000
1745527217.978,-186.523,-32.715,-33.203,-175.293,0.000
1745527217.982,-177.734,-31.250,-30.762,-171.387,0.000
1745527217.986,-171.387,-38.086,-35.156,-168.457,0.000
1745527217.990,-158.203,-34.668,-35.645,-153.809,0.000
1745527217.994,-150.391,-32.227,-34.668,-137.695,0.000
1745527217.998,-146.484,-36.133,-43.945,-135.742,0.000
1745527218.002,-124.023,-36.621,-46.387,-124.023,0.000
1745527218.006,-107.910,-41.016,-43.945,-110.840,0.000
1745527218.010,-105.957,-37.598,-38.574,-96.680,0.000
1745527218.014,-93.262,-37.109,-35.156,-90.820,0.000
1745527218.018,-84.961,-43.457,-40.527,-92.773,0.000
1745527218.021,-79.590,-41.504,-44.434,-81.543,0.000
1745527218.025,-62.988,-32.227,-41.016,-61.035,0.000
1745527218.029,-51.758,-27.832,-37.598,-45.410,0.000
1745527218.033,-46.387,-29.785,-38.086,-32.715,0.000
1745527218.037,-38.574,-26.855,-35.156,-27.344,0.000
1745527218.041,-25.879,-24.414,-34.180,-24.414,0.000
1745527218.045,-19.043,-27.832,-38.086,-29.785,0.000
1745527218.049,-14.648,-25.391,-35.156,-29.297,0.000
1745527218.053,-9.277,-21.484,-27.832,-12.207,0.000
1745527218.057,-6.836,-20.996,-30.762,-2.441,0.000
1745527218.061,-6.348,-20.508,-35.645,-11.719,0.000
1745527218.064,-6.348,-28.320,-38.574,-12.695,0.000
1745527218.068,-5.859,-33.691,-39.551,-15.625,0.000
1745527218.072,-1.953,-35.156,-36.621,-12.695,0.000
1745527218.076,0.488,-34.668,-40.039,-6.836,0.000
1745527218.080,7.324,-29.785,-36.133,-1.465,0.000
1745527218.084,12.695,-27.344,-33.203,6.836,0.000
1745527218.088,10.742,-29.297,-41.504,5.371,0.000
1745527218.092,14.160,-29.785,-38.086,2.441,0.000
1745527218.096,21.484,-26.855,-29.785,11.719,0.000
1745527218.100,14.648,-27.344,-28.320,17.578,0.000
1745527218.104,8.789,-24.902,-29.785,15.625,0.000
1745527218.107,10.742,-28.320,-30.273,14.648,0.000
1745527218.111,8.789,-36.133,-28.809,13.672,0.000
1745527218.115,8.301,-35.645,-29.297,12.695,0.000
1745527218.119,7.324,-34.668,-32.715,9.766,0.000
1745527218.123,2.930,-34.180,-31.250,10.742,0.000
1745527218.127,4.395,-33.691,-29.785,7.812,0.000
1745527218.131,7.324,-32.227,-30.762,11.719,0.000
1745527218.135,15.137,-26.855,-27.832,21.973,0.000
1745527218.139,14.648,-24.902,-25.879,17.578,0.000
1745527218.143,7.324,-29.297,-25.879,12.207,0.000
1745527218.147,7.324,-27.832,-24.414,16.602,0.000
1745527218.150,8.301,-24.902,-26.855,14.648,0.000
1745527218.154,8.301,-28.320,-28.809,11.230,0.000
1745527218.158,8.301,-34.180,-26.855,17.090,0.000
1745527218.162,10.742,-30.762,-26.367,18.555,0.000
1745527218.166,13.672,-26.367,-29.785,12.695,0.000
1745527218.170,10.254,-27.344,-29.785,9.766,0.000
1745527218.174,8.301,-25.391,-26.855,10.254,0.000
1745527218.178,10.742,-24.902,-23.926,8.789,0.000
1745527218.182,10.742,-24.414,-22.461,9.277,0.000
1745527218.186,5.371,-20.996,-26.855,10.742,0.000
1745527218.189,0.977,-20.508,-24.902,7.812,0.000
1745527218.193,-0.977,-22.461,-24.414,0.000,0.000
1745527218.197,0.977,-19.531,-25.879,-4.395,0.000
1745527218.201,-1.953,-23.438,-24.902,-8.301,0.000
1745527218.205,-9.277,-27.344,-29.785,-7.812,0.000
1745527218.209,-10.254,-23.438,-34.180,-6.836,0.000
1745527218.213,-10.254,-24.902,-35.156,-10.254,0.000
1745527218.217,-3.906,-24.414,-30.273,-0.977,0.000
1745527218.221,-8.301,-18.066,-29.785,-3.906,0.000
1745527218.225,-40.039,-15.625,-36.621,-30.273,0.000
1745527218.229,-54.688,-18.555,-37.598,-42.969,0.000
1745527218.232,-49.316,-22.461,-38.086,-48.340,0.000
1745527218.236,-57.129,-23.926,-44.434,-63.965,0.000
1745527218.240,-68.359,-25.391,-45.898,-71.289,0.000
1745527218.244,-75.195,-23.926,-41.504,-69.336,0.000
1745527218.248,-74.707,-28.809,-48.340,-68.848,0.000
1745527218.252,-70.312,-29.297,-52.734,-62.012,0.000
1745527218.256,-68.848,-24.902,-41.016,-58.594,0.000
1745527218.260,-71.289,-31.250,-41.992,-60.547,0.000
1745527218.264,-65.430,-34.668,-42.969,-58.594,0.000
1745527218.268,-59.570,-30.762,-40.527,-56.152,0.000
1745527218.272,-65.430,-32.227,-41.504,-56.641,0.000
1745527218.275,-66.895,-31.738,-41.992,-58.105,0.000
1745527218.279,-55.664,-29.785,-40.039,-50.293,0.000
1745527218.283,-49.316,-29.297,-37.598,-42.969,0.000
1745527218.287,-41.992,-24.414,-38.574,-42.480,0.000
1745527218.291,-41.016,-22.461,-42.480,-41.504,0.000
1745527218.295,-40.527,-22.461,-41.504,-37.109,0.000
1745527218.299,-32.715,-23.438,-41.992,-32.227,0.000
1745527218.303,-33.203,-25.391,-40.039,-27.344,0.000
1745527218.307,-33.691,-24.902,-43.457,-29.297,0.000
1745527218.311,-27.832,-21.973,-42.969,-34.668,0.000
1745527218.314,-27.344,-23.926,-38.086,-29.785,0.000
1745527218.318,0.000,-32.715,-39.551,-25.879,0.000
1745527218.322,0.000,-33.691,-38.574,-29.785,0.000
1745527218.326,0.000,-29.297,-36.133,-27.832,0.000
1745527218.330,0.000,-26.855,-35.645,-17.578,0.000
1745527218.334,0.000,-22.461,-32.227,-9.766,0.000
1745527218.338,0.000,-21.484,-26.855,-11.719,0.000
1745527218.342,0.000,-31.250,-30.273,-14.648,0.000
1745527218.346,0.000,-32.227,-31.738,-7.812,0.000
1745527218.350,0.000,-34.180,-31.738,-11.719,0.000
1745527218.353,0.000,-35.645,-35.645,-19.043,0.000
1745527218.357,0.000,-31.250,-37.598,-24.902,0.000
1745527218.361,0.000,-35.156,-38.574,-29.297,0.000
1745527218.365,-27.832,-35.156,-34.180,-28.809,0.000
1745527218.369,-31.250,-30.762,-31.738,-29.297,0.000
1745527218.373,-26.367,-31.738,-36.133,-32.715,0.000
1745527218.377,-25.391,-31.250,-39.062,-33.203,0.000
1745527218.381,-30.762,-31.738,-41.992,-40.039,0.000
1745527218.385,-32.715,-29.785,-38.086,-40.039,0.000
1745527218.389,-29.785,-26.855,-33.691,-33.203,0.000
1745527218.393,-29.785,-30.762,-34.180,-34.668,0.000
1745527218.396,-39.551,-33.203,-36.133,-31.250,0.000
1745527218.400,-39.551,-33.691,-31.250,-23.438,0.000
1745527218.404,-36.133,-36.133,-32.227,-30.273,0.000
1745527218.408,-41.016,-37.109,-33.203,-36.621,0.000
1745527218.412,-35.645,-35.645,-34.180,-33.203,0.000
1745527218.416,-24.902,-32.227,-39.551,-30.273,0.000
1745527218.420,-20.996,-31.738,-41.504,-30.762,0.000
1745527218.424,-20.508,-32.715,-43.945,-27.344,0.000
1745527218.428,-17.090,-32.227,-42.969,-21.484,0.000
1745527218.432,-15.137,-27.832,-39.551,-23.926,0.000
1745527218.436,-16.113,-28.320,-38.574,-29.297,0.000
1745527218.439,-20.508,-35.645,-36.621,-26.855,0.000
1745527218.443,-24.414,-36.133,-35.645,-22.461,0.000
1745527218.447,-23.926,-33.691,-36.133,-24.414,0.000
1745527218.451,-22.461,-27.832,-33.203,-20.508,0.000
1745527218.455,-25.391,-29.785,-32.227,-20.996,0.000
1745527218.459,-27.344,-34.180,-30.762,-20.996,0.000
1745527218.463,-28.320,-30.273,-30.273,-18.555,0.000
1745527218.467,-31.250,-35.156,-32.715,-20.508,0.000
1745527218.471,-28.809,-34.180,-29.785,-21.973,0.000
1745527218.475,-28.320,-26.367,-30.762,-19.531,0.000
1745527218.479,-23.926,-23.926,-34.180,-17.578,0.000
1745527218.482,-24.414,-21.973,-35.645,-19.043,0.000
1745527218.486,-34.668,-26.367,-35.645,-23.926,0.000
1745527218.490,-37.109,-30.762,-34.180,-29.785,0.000
1745527218.494,-37.598,-30.762,-38.574,-32.715,0.000
1745527218.498,-40.039,-37.109,-38.574,-33.691,0.000
1745527218.502,-38.086,-36.621,-32.227,-34.668,0.000
1745527218.506,0.000,-33.203,-30.762,-31.738,0.000
1745527218.510,0.000,-34.668,-40.039,-31.738,0.000
1745527218.514,0.000,-31.250,-44.922,-34.180,0.000
1745527218.518,0.000,-29.785,-40.527,-34.668,0.000
1745527218.521,0.000,-32.715,-38.086,-29.297,0.000
1745527218.525,0.000,-28.809,-37.598,-24.902,0.000
1745527218.529,0.000,-27.832,-39.551,-25.879,0.000
1745527218.533,0.000,-27.832,-34.180,-22.949,0.000
1745527218.537,0.000,-25.391,-30.762,-23.926,0.000
1745527218.541,0.000,-28.320,-32.227,-23.438,0.000
1745527218.545,0.000,-30.273,-30.273,-23.926,0.000
1745527218.549,0.000,-29.785,-31.250,-20.996,0.000
1745527218.553,-31.250,-34.180,-39.062,-26.367,0.000
1745527218.557,-27.344,-35.645,-37.109,-34.668,0.000
1745527218.561,-22.949,-33.203,-35.156,-26.367,0.000
1745527218.564,-20.996,-32.227,-36.133,-23.926,0.000
1745527218.568,-22.461,-22.949,-35.645,-26.367,0.000
1745527218.572,-28.809,-20.508,-34.668,-22.949,0.000
1745527218.576,-30.762,-29.297,-32.715,-25.391,0.000
1745527218.580,-26.855,-34.668,-31.250,-25.391,0.000
1745527218.584,-14.160,-31.738,-33.691,-18.555,0.000
1745527218.588,3.906,-23.926,-37.109,-9.277,0.000
1745527218.592,-0.977,-25.391,-31.738,-9.766,0.000
1745527218.596,-27.344,-36.621,-22.461,-24.414,0.000
1745527218.600,0.000,-40.039,-20.020,-17.090,0.000
1745527218.604,0.000,-41.992,-16.602,-12.695,0.000
1745527218.607,0.000,-45.410,-11.230,-22.949,0.000
1745527218.611,0.000,-49.316,-7.812,-20.020,0.000
1745527218.615,0.000,-49.805,-1.465,-20.508,0.000
1745527218.619,0.000,-45.410,2.441,-20.508,0.000
1745527218.623,0.000,-45.410,3.906,-14.648,0.000
1745527218.627,0.000,-46.387,0.488,-13.672,0.000
1745527218.631,0.000,-47.363,-6.836,-12.695,0.000
1745527218.635,0.000,-47.852,-11.230,-18.555,0.000
1745527218.639,0.000,-42.480,-11.719,-19.043,0.000
1745527218.643,0.000,-40.527,-9.766,-11.719,0.000
1745527218.647,-28.320,-40.039,-6.836,-12.695,0.000
1745527218.650,-26.367,-35.156,-5.371,-14.160,0.000
1745527218.654,-32.227,-38.086,-12.695,-17.090,0.000
1745527218.658,-35.156,-42.480,-18.066,-17.578,0.000
1745527218.662,-29.297,-34.180,-12.695,-16.113,0.000
1745527218.666,-29.785,-28.320,-7.812,-22.461,0.000
1745527218.670,-32.227,-38.574,-18.555,-26.855,0.000
1745527218.674,-25.879,-44.434,-23.926,-21.484,0.000
1745527218.678,-33.203,-45.410,-23.438,-26.855,0.000
1745527218.682,-40.039,-41.016,-24.902,-31.250,0.000
1745527218.685,-27.832,-37.109,-20.996,-27.344,0.000
1745527218.689,-18.066,-35.645,-19.531,-21.484,0.000
1745527218.693,-19.043,-31.250,-18.066,-12.207,0.000
1745527218.697,-17.090,-34.180,-17.090,-4.395,0.000
1745527218.701,-18.555,-39.062,-21.973,-13.184,0.000
1745527218.705,-22.949,-40.527,-26.367,-21.973,0.000
1745527218.709,-22.949,-40.527,-23.926,-15.137,0.000
1745527218.713,-19.043,-33.203,-16.602,-11.230,0.000
1745527218.717,-11.230,-28.809,-19.043,-11.230,0.000
1745527218.721,-12.207,-37.109,-23.926,-18.066,0.000
1745527218.725,-20.508,-40.039,-28.809,-31.250,0.000
1745527218.728,-26.855,-39.062,-26.367,-34.668,0.000
1745527218.732,-38.086,-42.480,-24.414,-29.297,0.000
1745527218.736,-36.133,-38.574,-26.367,-32.227,0.000
1745527218.740,-30.273,-33.691,-22.949,0.000,0.000
1745527218.744,-39.062,-35.645,-23.926,0.000,0.000
1745527218.748,-39.062,-37.109,-27.344,0.000,0.000
1745527218.752,-37.109,-36.133,-30.273,0.000,0.000
1745527218.756,-36.133,-32.227,-31.738,0.000,0.000
1745527218.760,-30.762,-28.320,-28.320,0.000,0.000
1745527218.764,-24.414,-27.832,-28.809,0.000,0.000
1745527218.768,-29.297,-37.598,-32.227,0.000,0.000
1745527218.771,-31.738,-38.574,-29.785,0.000,0.000
1745527218.775,-24.902,-34.180,-28.320,0.000,0.000
1745527218.779,-24.414,-33.691,-29.297,0.000,0.000
1745527218.783,-27.832,-35.156,-29.785,0.000,0.000
1745527218.787,0.000,-36.621,-25.879,-19.531,0.000
1745527218.791,0.000,-37.109,-29.785,-23.438,0.000
1745527218.795,0.000,-36.133,-36.621,-26.367,0.000
1745527218.799,0.000,-36.133,-33.203,-24.414,0.000
1745527218.803,0.000,-37.109,-31.250,-24.902,0.000
1745527218.807,0.000,-31.738,-31.738,-30.273,0.000
1745527218.811,0.000,-30.762,-25.879,-25.879,0.000
1745527218.814,0.000,-37.598,-27.832,-19.043,0.000
1745527218.818,0.000,-33.203,-32.227,-24.414,0.000
1745527218.822,0.000,-29.297,-32.227,-30.762,0.000
1745527218.826,0.000,-29.297,-32.227,-26.855,0.000
1745527218.830,0.000,-28.320,-35.645,-20.020,0.000
1745527218.834,-27.832,-30.762,-41.992,-20.508,0.000
1745527218.838,-28.809,-32.715,-40.039,-16.602,0.000
1745527218.842,-38.574,-37.109,-41.016,-15.625,0.000
1745527218.846,-38.086,-37.109,-42.480,-24.414,0.000
1745527218.850,-35.156,-37.109,-43.457,-28.809,0.000
1745527218.853,-36.133,-34.668,-40.039,-23.926,0.000
1745527218.857,-29.785,-30.273,-37.109,-26.855,0.000
1745527218.861,-24.414,-40.039,-41.016,-32.715,0.000
1745527218.865,-25.391,-47.363,-38.574,-37.109,0.000
1745527218.869,-29.785,-43.457,-35.645,-34.180,0.000
1745527218.873,-29.785,-41.992,-35.645,-29.297,0.000
1745527218.877,-31.250,-38.574,-33.691,-29.297,0.000
1745527218.881,-28.320,-34.180,-32.227,-26.367,0.000
1745527218.885,-27.344,-33.203,-30.762,-24.414,0.000
1745527218.889,-28.809,-41.992,-36.133,-28.320,0.000
1745527218.893,-27.344,-39.062,-36.133,-29.785,0.000
1745527218.896,-32.227,-35.156,-34.180,-32.715,0.000
1745527218.900,-31.738,-33.691,-35.645,-35.156,0.000
1745527218.904,-23.438,-28.320,-33.691,-33.691,0.000
1745527218.908,-22.461,-27.832,-29.297,-31.250,0.000
1745527218.912,-20.020,-26.367,-27.832,-24.414,0.000
1745527218.916,-15.625,-33.203,-29.297,-23.438,0.000
1745527218.920,-21.484,-33.691,-31.250,-21.973,0.000
1745527218.924,-22.461,-31.738,-28.809,-17.090,0.000
1745527218.928,0.000,-33.691,-27.832,-15.625,0.000
1745527218.932,0.000,-31.738,-30.273,-16.113,0.000
1745527218.936,0.000,-32.227,-26.367,-15.625,0.000
1745527218.939,0.000,-33.203,-24.902,-23.926,0.000
1745527218.943,0.000,-26.855,-28.320,-25.391,0.000
1745527218.947,0.000,-21.973,-26.855,-23.926,0.000
1745527218.951,0.000,-24.414,-23.926,-25.391,0.000
1745527218.955,0.000,-28.809,-24.902,-29.785,0.000
1745527218.959,0.000,-28.809,-25.879,-30.273,0.000
1745527218.963,0.000,-31.250,-28.809,-34.668,0.000
1745527218.967,0.000,-30.762,-27.832,-38.574,0.000
1745527218.971,0.000,-28.809,-26.367,-36.621,0.000
1745527218.975,-39.062,-31.738,-28.809,-39.551,0.000
1745527218.979,-42.480,-33.203,-37.109,-41.992,0.000
1745527218.982,-41.016,-33.203,-34.668,-36.621,0.000
1745527218.986,-32.715,-30.273,-27.832,-31.738,0.000
1745527218.990,-27.832,-26.855,-28.320,-33.691,0.000
1745527218.994,-30.273,-22.461,-28.320,-37.598,0.000
1745527218.998,-38.086,-27.344,-30.762,-41.504,0.000
1745527219.002,-40.039,-35.156,-33.203,-40.039,0.000
1745527219.006,-37.109,-37.598,-30.762,-38.086,0.000
1745527219.010,-36.621,-38.086,-31.738,-37.598,0.000
1745527219.014,-41.992,-38.574,-30.762,-36.133,0.000
1745527219.017,-36.621,-37.598,-26.367,-31.250,0.000
1745527219.021,-30.273,-39.062,-29.297,-31.250,0.000
1745527219.025,-31.250,-39.551,-33.203,-33.203,0.000
1745527219.029,-30.762,-35.645,-32.715,-28.809,0.000
1745527219.033,-24.414,-33.691,-31.250,-31.738,0.000
1745527219.037,-28.320,-36.133,-33.203,-34.180,0.000
1745527219.041,-41.504,-30.762,-33.691,-29.785,0.000
1745527219.045,-42.969,-30.762,-31.738,-23.926,0.000
1745527219.049,-41.016,-38.086,-29.785,-32.715,0.000
1745527219.053,-43.945,-41.504,-33.203,-50.293,0.000
1745527219.057,-37.109,-36.621,-30.273,-40.039,0.000
1745527219.060,-31.250,-30.273,-32.715,-29.297,0.000
1745527219.064,-21.484,-27.344,-38.086,-34.180,0.000
1745527219.068,0.000,-25.391,-37.109,-31.250,0.000
1745527219.072,0.000,-31.738,-38.086,-41.016,0.000
1745527219.076,0.000,-38.086,-29.297,-53.223,0.000
1745527219.080,0.000,-31.738,-20.996,-52.246,0.000
1745527219.084,0.000,-34.180,-24.414,-49.316,0.000
1745527219.088,0.000,-41.504,-26.855,-56.641,0.000
1745527219.092,0.000,-39.062,-27.832,-60.547,0.000
1745527219.096,0.000,-38.574,-27.832,-49.316,0.000
1745527219.100,0.000,-41.992,-27.344,-41.504,0.000
1745527219.103,0.000,-38.574,-26.367,-40.527,0.000
1745527219.107,0.000,-34.668,-27.832,-38.574,0.000
1745527219.111,0.000,-37.109,-28.320,-39.062,0.000
1745527219.115,-38.574,-36.133,-26.367,-38.574,0.000
1745527219.119,-36.133,-32.227,-27.832,-34.668,0.000
1745527219.123,-29.785,-32.715,-22.949,-30.273,0.000
1745527219.127,-27.832,-28.320,-18.066,-27.344,0.000
1745527219.131,-30.762,-28.809,-20.508,-28.320,0.000
1745527219.135,-39.551,-31.738,-20.508,-36.133,0.000
1745527219.139,-37.109,-32.227,-18.555,-40.039,0.000
1745527219.143,-29.785,-35.645,-19.043,-39.062,0.000
1745527219.146,-32.227,-37.109,-18.066,-36.621,0.000
1745527219.150,-33.203,-39.551,-20.020,-37.598,0.000
1745527219.154,-26.367,-37.109,-18.555,-34.668,0.000
1745527219.158,-30.762,-31.250,-19.043,-30.762,0.000
1745527219.162,-41.016,-33.691,-24.902,-41.016,0.000
1745527219.166,-39.062,-31.738,-25.879,-43.457,0.000
1745527219.170,-40.527,-35.645,-29.785,-40.527,0.000
1745527219.174,-39.062,-33.691,-29.297,-33.691,0.000
1745527219.178,-36.621,-29.785,-29.785,-26.855,0.000
1745527219.182,-31.250,-25.391,-27.344,-19.531,0.000
1745527219.185,-24.902,-28.320,-29.785,-14.648,0.000
1745527219.189,-31.250,-36.133,-34.180,-16.602,0.000
1745527219.193,-32.227,-32.227,-28.809,-16.113,0.000
1745527219.197,-26.855,-32.715,-24.902,-14.160,0.000
1745527219.201,-25.391,-34.668,-22.461,-15.137,0.000
1745527219.205,-27.344,-32.227,-17.578,-18.066,0.000
1745527219.209,-34.668,-31.250,-15.625,-20.508,0.000
1745527219.213,-40.527,-28.809,-18.066,-17.578,0.000
1745527219.217,-38.086,-31.738,-22.461,-18.066,0.000
1745527219.221,-37.109,-33.203,-21.484,-15.137,0.000
1745527219.225,-34.668,-27.832,-21.484,-7.324,0.000
1745527219.228,-30.762,-29.297,-20.996,-9.277,0.000
1745527219.232,-31.250,-39.551,-25.879,-13.672,0.000
1745527219.236,-24.414,-41.016,-28.809,-13.184,0.000
1745527219.240,-17.578,-35.645,-27.344,-13.672,0.000
1745527219.244,-25.879,-35.156,-31.738,-11.719,0.000
1745527219.248,-33.203,-38.086,-30.273,-10.742,0.000
1745527219.252,-31.250,-36.621,-23.926,-12.695,0.000
1745527219.256,0.000,-39.551,-25.879,0.000,0.000
1745527219.260,0.000,-39.551,-26.855,0.000,0.000
1745527219.264,0.000,-36.133,-24.902,0.000,0.000
1745527219.268,0.000,-40.527,-29.785,0.000,0.000
1745527219.271,0.000,-37.598,-26.855,0.000,0.000
1745527219.275,0.000,-28.809,-24.414,0.000,0.000
1745527219.279,0.000,-31.738,-28.809,0.000,0.000
1745527219.283,0.000,-38.574,-27.832,0.000,0.000
1745527219.287,0.000,-37.109,-30.762,0.000,0.000
1745527219.291,0.000,-31.250,-26.367,0.000,0.000
1745527219.295,0.000,-34.180,-25.391,0.000,0.000
1745527219.299,0.000,-33.691,-30.762,0.000,0.000
1745527219.303,-35.156,-30.762,-31.738,-23.926,0.000
1745527219.307,-38.574,-33.203,-30.762,-24.902,0.000
1745527219.311,-34.668,-30.762,-27.344,-29.785,0.000
1745527219.314,-28.809,-28.809,-24.414,-28.320,0.000
1745527219.318,-34.180,-32.227,-22.949,-21.973,0.000
1745527219.322,-33.203,-29.297,-26.367,-22.461,0.000
1745527219.326,-28.809,-30.273,-28.320,-21.973,0.000
1745527219.330,-34.180,-36.621,-26.367,-20.996,0.000
1745527219.334,-39.062,-35.645,-27.344,-21.973,0.000
1745527219.338,-42.969,-37.598,-27.344,-26.855,0.000
1745527219.342,-38.086,-36.133,-26.855,-29.785,0.000
1745527219.346,-30.273,-33.203,-25.391,-28.809,0.000
1745527219.350,0.000,-31.250,0.000,-25.879,0.000
1745527219.353,0.000,-27.344,0.000,-29.785,0.000
1745527219.357,0.000,-29.785,0.000,-40.527,0.000
1745527219.361,0.000,-30.762,0.000,-41.504,0.000
1745527219.365,0.000,-25.391,0.000,-41.016,0.000
1745527219.369,0.000,-24.414,0.000,-41.016,0.000
1745527219.373,0.000,-26.367,0.000,-42.969,0.000
1745527219.377,0.000,-30.762,0.000,-41.504,0.000
1745527219.381,0.000,-32.715,0.000,-37.598,0.000
1745527219.385,0.000,-31.738,0.000,-43.457,0.000
1745527219.389,0.000,-34.668,0.000,-44.922,0.000
1745527219.392,0.000,-34.180,0.000,-43.457,0.000
1745527219.396,-51.270,-33.691,-23.926,-45.410,0.000
1745527219.400,-48.340,-31.738,-27.344,-45.410,0.000
1745527219.404,-47.363,-26.367,-34.668,-43.457,0.000
1745527219.408,-42.969,-30.762,-34.668,-40.527,0.000
1745527219.412,-34.180,-34.180,-28.809,-33.691,0.000
1745527219.416,-38.086,-33.203,-27.832,-33.203,0.000
1745527219.420,-41.016,-30.273,-30.273,-30.762,0.000
1745527219.424,-40.039,-29.297,-29.297,-32.715,0.000
1745527219.428,-43.457,-39.062,-29.297,-38.086,0.000
1745527219.432,-40.039,-41.016,-29.297,-36.621,0.000
1745527219.435,-33.203,-40.527,-28.809,-34.668,0.000
1745527219.439,-36.133,-43.945,-30.762,-33.203,0.000
1745527219.439,-36.133,-43.945,-30.762,-33.203,0.000
1745527219.443,-37.598,-45.410,-35.156,-36.133,0.000
1745527219.447,-28.320,-43.945,-34.180,-33.203,0.000
1745527219.451,-21.973,-37.109,-34.668,-27.832,0.000
1745527219.455,-23.926,-37.109,-38.086,-30.273,0.000
1745527219.459,-23.926,-39.062,-36.621,-32.715,0.000
1745527219.463,-21.484,-30.762,-30.762,-36.621,0.000
1745527219.467,-25.391,-30.273,-30.762,-31.738,0.000
1745527219.471,-26.855,-33.203,-30.273,-21.484,0.000
1745527219.475,-19.043,-26.855,-22.949,-25.879,0.000
1745527219.478,-20.508,-20.020,-22.461,-27.344,0.000
1745527219.482,-30.762,-24.414,-29.785,-28.320,0.000
1745527219.486,-31.250,-33.203,-29.785,-29.297,0.000
1745527219.490,0.000,-32.715,-27.832,-28.320,0.000
1745527219.494,0.000,-30.762,-27.344,-20.508,0.000
1745527219.498,0.000,-28.320,-25.391,-1.465,0.000
1745527219.502,0.000,-22.461,-30.273,-11.230,0.000
1745527219.506,0.000,-20.996,-35.156,-34.668,0.000
1745527219.510,0.000,-18.066,-37.109,-35.156,0.000
1745527219.514,0.000,-12.207,-41.504,-36.621,0.000
1745527219.517,0.000,-15.137,-53.711,-46.875,0.000
1745527219.521,0.000,-17.578,-57.129,-53.223,0.000
1745527219.525,0.000,-11.230,-54.199,-50.781,0.000
1745527219.529,0.000,-7.812,-55.176,-44.922,0.000
1745527219.533,0.000,1.465,-56.152,-53.223,0.000
1745527219.537,-35.645,2.930,-61.035,-67.871,0.000
1745527219.541,-37.109,-8.789,-67.383,-64.941,0.000
1745527219.545,-35.156,-8.789,-68.359,-58.594,0.000
1745527219.549,-41.992,-8.301,-69.336,-64.941,0.000
1745527219.553,-42.969,-11.719,-69.824,-65.918,0.000
1745527219.557,-36.621,-8.301,-67.871,-60.059,0.000
1745527219.560,-30.762,-8.789,-67.383,-44.922,0.000
1745527219.564,-32.227,-18.066,-65.918,-34.180,0.000
1745527219.568,-31.738,-15.137,-60.547,-38.086,0.000
1745527219.572,-28.320,-12.207,-55.664,-41.504,0.000
1745527219.576,-22.949,-17.090,-56.152,-41.992,0.000
1745527219.580,-22.949,-20.996,-54.199,-47.852,0.000
1745527219.584,-26.367,-20.996,-51.270,-46.387,0.000
1745527219.588,-23.926,-19.531,-51.758,-35.645,0.000
1745527219.592,-20.020,-19.531,-51.270,-36.133,0.000
1745527219.596,-19.043,-20.508,-49.805,-33.691,0.000
1745527219.600,-27.832,-23.438,-54.199,-29.785,0.000
1745527219.603,-32.715,-21.973,-54.688,-34.180,0.000
1745527219.607,-34.668,-28.809,-55.664,-41.992,0.000
1745527219.611,-32.715,-36.133,-52.734,-40.039,0.000
1745527219.615,-32.715,-31.250,-51.270,-37.109,0.000
1745527219.619,-37.109,-25.391,-51.270,-41.992,0.000
1745527219.623,-32.715,-23.438,-44.922,-40.527,0.000
1745527219.627,-23.926,-20.508,-38.086,-36.133,0.000
1745527219.631,0.000,-20.020,-35.645,-34.668,0.000
1745527219.635,0.000,-22.949,-35.156,-34.668,0.000
1745527219.639,0.000,-25.879,-35.156,-36.133,0.000
1745527219.643,0.000,-26.367,-40.039,-36.621,0.000
1745527219.646,0.000,-20.508,-37.109,-33.203,0.000
1745527219.650,0.000,-17.578,-34.668,-29.785,0.000
1745527219.654,0.000,-24.902,-41.504,-28.320,0.000
1745527219.658,0.000,-36.133,-42.480,-21.484,0.000
1745527219.662,0.000,-38.086,-40.039,-20.020,0.000
1745527219.666,0.000,-31.250,-39.062,-20.996,0.000
1745527219.670,0.000,-27.832,-40.039,-23.438,0.000
1745527219.674,0.000,-28.809,-43.945,-28.809,0.000
1745527219.678,-33.691,-28.320,-42.969,-28.809,0.000
1745527219.682,-38.574,-31.250,-36.621,-24.902,0.000
1745527219.685,-35.645,-32.715,-31.738,-26.367,0.000
1745527219.689,-33.691,-29.785,-33.203,-33.691,0.000
1745527219.693,-41.016,-28.809,-40.039,-40.527,0.000
1745527219.697,-42.480,-20.996,-37.598,-42.480,0.000
1745527219.701,-43.457,-17.578,-30.273,-39.551,0.000
1745527219.705,-45.898,-26.367,-32.227,-47.363,0.000
1745527219.709,-46.875,-31.250,-38.086,-51.758,0.000
1745527219.713,-49.316,-40.039,-42.480,-50.293,0.000
1745527219.717,-38.086,-34.668,-47.852,-46.387,0.000
1745527219.721,-21.484,-25.879,-49.805,-31.738,0.000
1745527219.725,-16.602,-34.668,-39.551,-22.461,0.000
1745527219.728,-36.133,-46.387,-28.809,-33.691,0.000
1745527219.732,-47.363,-50.293,-24.414,-42.969,0.000
1745527219.736,-47.363,-51.758,-20.996,-37.598,0.000
1745527219.740,-54.199,-54.688,-12.695,-33.691,0.000
1745527219.744,-55.176,-54.199,-0.977,-22.949,0.000
1745527219.748,-56.152,-59.082,0.977,-12.207,0.000
1745527219.752,-51.270,-62.500,5.859,-22.461,0.000
1745527219.756,-48.828,-64.453,14.648,-22.461,0.000
1745527219.760,-54.688,-70.312,12.695,-16.113,0.000
1745527219.764,-50.781,-66.406,4.395,-18.555,0.000
1745527219.767,-39.551,-64.941,-0.977,-15.625,0.000
1745527219.771,-34.180,-64.941,0.488,-12.207,0.000
1745527219.775,-28.809,-62.988,2.930,-7.324,0.000
1745527219.779,-25.391,-61.523,-2.441,-3.906,0.000
1745527219.783,-22.949,-56.641,-3.906,-0.977,0.000
1745527219.787,-23.926,-52.734,0.000,0.977,0.000
1745527219.791,-36.133,-49.316,-2.930,-5.859,0.000
1745527219.795,-39.062,-49.316,-5.371,-11.719,0.000
1745527219.799,-35.156,-57.617,-10.254,-10.254,0.000
1745527219.803,-38.086,-56.152,-12.207,-13.672,0.000
1745527219.807,-41.504,-51.758,-12.695,-19.043,0.000
1745527219.810,-41.992,-48.828,-15.137,-19.531,0.000
1745527219.814,-38.574,-46.387,-16.602,-18.555,0.000
1745527219.818,0.000,-46.875,-18.066,-13.672,0.000
1745527219.822,0.000,-42.480,-14.160,-8.301,0.000
1745527219.826,0.000,-45.898,-17.578,-11.230,0.000
1745527219.830,0.000,-47.363,-22.949,-13.184,0.000
1745527219.834,0.000,-46.875,-22.461,-13.184,0.000
1745527219.838,0.000,-43.457,-23.438,-9.766,0.000
1745527219.842,0.000,-41.992,-25.391,-9.766,0.000
1745527219.846,0.000,-43.457,-27.344,-9.277,0.000
1745527219.850,0.000,-41.016,-26.367,-4.395,0.000
1745527219.853,0.000,-37.109,-20.996,-1.953,0.000
1745527219.857,0.000,-39.551,-18.555,-10.254,0.000
1745527219.861,0.000,-46.387,-21.484,-10.742,0.000
1745527219.865,-32.715,-48.340,-25.391,-6.836,0.000
1745527219.869,-21.484,-45.898,-23.926,-8.301,0.000
1745527219.873,-17.090,-42.480,-22.461,-12.695,0.000
1745527219.877,-20.996,-36.133,-22.461,-14.160,0.000
1745527219.881,-25.879,-36.133,-20.508,-6.348,0.000
1745527219.885,-26.367,-28.809,-18.555,-7.812,0.000
1745527219.889,-18.555,-33.691,-20.996,-16.113,0.000
1745527219.892,-19.043,-49.316,-27.832,-31.738,0.000
1745527219.896,-23.438,-49.316,-28.809,-37.109,0.000
1745527219.900,-20.508,-44.922,-28.320,-31.738,0.000
1745527219.904,-15.137,-40.527,-30.762,-27.832,0.000
1745527219.908,-16.602,-43.457,-34.668,-31.250,0.000
1745527219.912,-33.203,-42.480,-34.180,-36.133,0.000
1745527219.916,-31.738,-35.645,-28.809,-29.785,0.000
1745527219.920,-25.879,-33.691,-26.367,-29.297,0.000
1745527219.924,-25.391,-32.227,-32.227,-31.738,0.000
1745527219.928,-20.508,-26.367,-32.227,-28.320,0.000
1745527219.932,-17.090,-31.250,-30.762,-27.344,0.000
1745527219.935,-6.836,-34.668,-31.738,-21.973,0.000
1745527219.939,-16.113,-29.297,-36.133,-19.043,0.000
1745527219.943,-21.973,-27.344,-42.480,-34.180,0.000
1745527219.947,-26.855,-25.879,-42.480,-39.062,0.000
1745527219.951,-27.832,-21.973,-43.457,-24.902,0.000
1745527219.955,-28.320,-17.090,-47.852,-19.531,0.000
1745527219.959,2.441,-12.695,0.000,-20.996,0.000
1745527219.963,-1.465,-8.301,0.000,-17.090,0.000
1745527219.967,0.488,-8.301,0.000,-14.160,0.000
1745527219.971,11.719,-11.230,0.000,-7.812,0.000
1745527219.975,-2.930,-8.789,0.000,-1.465,0.000
1745527219.978,-15.625,-5.859,0.000,-5.371,0.000
1745527219.982,-4.395,-6.836,0.000,-10.742,0.000
1745527219.986,4.395,-10.742,0.000,-16.602,0.000
1745527219.990,-13.184,-7.812,0.000,-12.695,0.000
1745527219.994,-20.020,-8.301,0.000,-6.348,0.000
1745527219.998,-15.137,-18.555,0.000,-12.695,0.000
1745527220.002,-9.277,-21.484,0.000,-20.508,0.000
1745527220.006,0.000,-16.113,-41.016,-24.414,0.000
1745527220.010,0.000,-15.625,-40.527,-25.391,0.000
1745527220.014,0.000,-14.160,-43.945,-25.879,0.000
1745527220.017,0.000,-16.113,-42.480,-26.367,0.000
1745527220.021,0.000,-18.066,-37.598,-30.273,0.000
1745527220.025,0.000,-19.043,-35.156,-30.762,0.000
1745527220.029,0.000,-27.832,-40.527,-29.785,0.000
1745527220.033,0.000,-28.320,-41.016,-27.344,0.000
1745527220.037,0.000,-25.879,-36.621,-21.973,0.000
1745527220.041,0.000,-22.949,-32.715,-15.625,0.000
1745527220.045,0.000,-13.184,-28.809,-12.207,0.000
1745527220.049,0.000,-13.672,-30.273,-17.578,0.000
1745527220.053,-5.859,-21.484,-35.645,-19.531,0.000
1745527220.057,-6.348,-24.414,-36.621,-20.020,0.000
1745527220.060,0.977,-26.855,-36.621,-18.066,0.000
1745527220.064,-2.930,-29.297,-35.645,-18.555,0.000
1745527220.068,-3.906,-26.367,-34.180,-23.438,0.000
1745527220.072,-4.883,-23.438,-33.691,-28.320,0.000
1745527220.076,-11.230,-25.391,-31.250,-23.438,0.000
1745527220.080,-3.418,-25.879,-29.785,-18.066,0.000
1745527220.084,-15.137,-23.926,-31.250,-21.484,0.000
1745527220.088,-9.766,-29.297,-36.133,-22.949,0.000
1745527220.092,10.742,-32.715,-40.039,-28.809,0.000
1745527220.096,2.930,-28.320,-41.504,-36.133,0.000
1745527220.100,-28.809,-22.949,-32.715,-25.391,0.000
1745527220.103,-29.297,-19.531,-27.832,-24.414,0.000
1745527220.107,-25.391,-20.996,-29.297,-19.531,0.000
1745527220.111,-26.855,-27.344,-24.902,-13.184,0.000
1745527220.115,-25.879,-29.785,-24.902,-32.715,0.000
1745527220.119,-18.066,-23.926,-28.320,-42.480,0.000
1745527220.123,-38.574,-23.438,-31.738,-42.969,0.000
1745527220.127,-43.457,-30.273,-34.668,-39.551,0.000
1745527220.131,-31.738,-32.715,-36.621,-42.480,0.000
1745527220.135,-35.645,-35.156,-41.016,-45.410,0.000
1745527220.139,-33.691,-31.738,-37.598,-40.527,0.000
1745527220.142,-42.969,-28.320,-37.598,-42.969,0.000
1745527220.146,-42.969,-34.668,-40.527,-40.039,0.000
1745527220.150,-28.320,-36.133,-31.738,-33.203,0.000
1745527220.154,-29.785,-25.879,-26.367,-31.250,0.000
1745527220.158,-32.227,-23.438,-27.832,-24.414,0.000
1745527220.162,-30.273,-25.391,-29.785,-22.949,0.000
1745527220.166,-38.086,-26.367,-29.785,-33.691,0.000
1745527220.170,-32.227,-27.344,-30.273,-32.715,0.000
1745527220.174,-16.113,-26.367,-30.273,-14.648,0.000
1745527220.178,-17.578,-31.738,-29.785,-15.625,0.000
1745527220.181,-26.855,-32.715,-32.227,-20.508,0.000
1745527220.185,-21.973,-27.832,-32.227,-21.973,0.000
1745527220.189,-24.414,-27.344,-32.715,-27.344,0.000
1745527220.193,-29.785,-29.297,-36.621,-31.738,0.000
1745527220.197,-32.227,-34.180,-36.621,-30.762,0.000
1745527220.201,-39.062,-34.668,-40.527,-22.949,0.000
1745527220.205,-38.574,-31.738,-42.480,-21.484,0.000
1745527220.209,-43.945,-30.273,-40.039,-32.715,0.000
1745527220.213,-50.781,-28.809,-34.668,-25.391,0.000
1745527220.217,-42.969,-29.297,-33.691,-24.414,0.000
1745527220.221,-38.086,-31.738,-40.527,-40.039,0.000
1745527220.224,-42.480,-34.668,-42.969,-39.551,0.000
1745527220.228,-33.691,-35.645,-39.062,-32.227,0.000
1745527220.232,-38.086,-32.715,-41.016,-42.480,0.000
1745527220.236,-33.203,-28.809,-37.598,-45.898,0.000
1745527220.240,0.000,-29.785,-35.156,-44.434,0.000
1745527220.244,0.000,-26.367,-34.668,-47.363,0.000
1745527220.248,0.000,-29.297,-37.598,-46.875,0.000
1745527220.252,0.000,-35.645,-39.062,-48.340,0.000
1745527220.256,0.000,-31.738,-34.668,-41.992,0.000
1745527220.260,0.000,-26.855,-31.738,-39.062,0.000
1745527220.264,0.000,-27.832,-36.621,-33.691,0.000
1745527220.267,0.000,-41.992,-37.598,-36.621,0.000
1745527220.271,0.000,-47.852,-35.645,-39.062,0.000
1745527220.275,0.000,-37.109,-33.203,-31.738,0.000
1745527220.279,0.000,-39.062,-30.273,-21.484,0.000
1745527220.283,0.000,-43.457,-32.227,-22.461,0.000
1745527220.287,-46.875,-44.434,-35.645,-28.809,0.000
1745527220.291,-36.621,-48.828,-36.621,-26.855,0.000
1745527220.295,-47.852,-51.758,-40.527,-26.367,0.000
1745527220.299,-58.594,-53.223,-43.945,-42.480,0.000
1745527220.303,-45.898,-56.641,-39.062,-40.527,0.000
1745527220.307,-44.922,-50.781,-39.551,-25.879,0.000
1745527220.310,-37.109,-41.016,-45.410,-31.250,0.000
1745527220.314,-39.062,-49.316,-48.828,-37.109,0.000
1745527220.318,-44.922,-53.223,-50.293,-35.645,0.000
1745527220.322,-39.551,-43.945,-48.340,-44.434,0.000
1745527220.326,-47.852,-43.457,-48.828,-47.363,0.000
1745527220.330,-52.734,-47.363,-43.945,-38.086,0.000
1745527220.334,-47.852,-48.828,-44.434,-34.668,0.000
1745527220.338,-43.457,-50.293,-46.387,-37.109,0.000
1745527220.342,-37.598,-47.363,-39.551,-36.133,0.000
1745527220.346,-42.480,-48.828,-38.574,-40.527,0.000
1745527220.349,-49.805,-49.316,-41.504,-29.297,0.000
1745527220.353,-43.945,-47.852,-38.574,-28.809,0.000
1745527220.357,-36.621,-50.781,-35.645,-29.785,0.000
1745527220.361,-30.762,-50.293,-35.645,-33.691,0.000
1745527220.365,-17.578,-43.457,-40.039,-27.344,0.000
1745527220.369,-29.785,-36.621,-35.156,-17.090,0.000
1745527220.373,-52.734,-40.527,-20.020,-37.109,0.000
1745527220.377,-64.941,-45.410,-20.020,-56.152,0.000
1745527220.381,-72.266,-52.734,-31.250,-62.500,0.000
1745527220.385,-82.520,-60.059,-31.250,-67.383,0.000
1745527220.389,-100.098,-54.199,-26.367,-68.359,0.000
1745527220.392,-95.215,-56.641,-29.297,-71.289,0.000
1745527220.396,-84.961,-59.570,-23.438,-89.355,0.000
1745527220.400,-87.402,-46.387,-20.020,-82.031,0.000
1745527220.404,-87.402,-44.434,-28.809,-61.035,0.000
1745527220.408,-82.031,-48.340,-29.297,-58.594,0.000
1745527220.412,-64.453,-38.086,-29.785,-55.176,0.000
1745527220.416,-64.453,-39.062,-36.621,-52.246,0.000
1745527220.420,-69.336,-40.039,-34.668,-50.781,0.000
1745527220.424,-65.430,-32.715,-28.809,-47.852,0.000
1745527220.428,-51.758,-28.320,-31.250,-36.621,0.000
1745527220.432,-38.574,-29.297,-28.320,-26.367,0.000
1745527220.435,-40.527,-29.297,-27.832,-21.973,0.000
1745527220.439,-37.598,-29.785,-26.855,-38.574,0.000
1745527220.443,-34.668,-28.320,-27.344,-41.992,0.000
1745527220.447,-41.992,-26.367,-30.273,-28.320,0.000
1745527220.451,-57.129,-26.855,-29.297,-42.969,0.000
1745527220.455,-59.570,-35.645,-29.297,-50.293,0.000
1745527220.459,-47.363,-40.527,-29.297,-49.316,0.000
1745527220.463,-33.691,-32.715,-30.273,-36.621,0.000
1745527220.467,-45.410,-39.551,-28.809,-33.203,0.000
1745527220.471,-43.945,-42.480,-30.762,-31.738,0.000
1745527220.475,-41.992,-31.738,-36.621,-32.715,0.000
1745527220.478,-56.152,-39.062,-33.691,-38.574,0.000
1745527220.482,-45.898,-30.762,-27.344,-38.086,0.000
1745527220.486,-31.738,-32.715,-26.855,-21.973,0.000
1745527220.490,-16.113,-36.621,-32.715,-3.418,0.000
1745527220.494,-9.277,-27.344,-31.250,-19.531,0.000
1745527220.498,-28.809,-31.250,-26.855,-14.648,0.000
1745527220.502,-36.621,-36.133,-29.297,-4.395,0.000
1745527220.506,-18.555,-38.574,-36.621,-7.324,0.000
1745527220.510,-19.043,-37.109,-34.180,11.719,0.000
1745527220.513,-37.598,-36.621,-26.367,0.488,0.000
1745527220.517,-37.109,-36.133,-26.855,-4.395,0.000
1745527220.521,-27.832,-30.762,-23.926,4.395,0.000
1745527220.525,-26.855,-32.227,-27.344,-5.371,0.000
1745527220.529,-30.762,-35.156,-31.250,-18.066,0.000
1745527220.533,-28.320,-39.062,-19.531,-2.441,0.000
1745527220.537,-35.645,-41.504,-24.902,5.859,0.000
1745527220.541,-33.203,-35.156,-28.320,2.441,0.000
1745527220.545,-28.809,-39.551,-30.762,-4.883,0.000
1745527220.549,-50.781,-41.016,-35.645,-6.836,0.000
1745527220.553,-49.316,-34.668,-30.273,-0.488,0.000
1745527220.556,-33.691,-31.250,-29.785,-1.465,0.000
1745527220.560,-47.363,-27.832,-28.809,9.277,0.000
1745527220.564,-49.316,-32.227,-32.715,21.484,0.000
1745527220.568,-46.387,-41.992,-31.738,29.297,0.000
1745527220.572,-39.551,-42.480,-24.414,44.434,0.000
1745527220.576,-38.086,-36.133,-29.297,49.316,0.000
1745527220.580,-42.480,-39.062,-33.691,48.340,0.000
1745527220.584,-47.852,-43.945,-35.156,39.062,0.000
1745527220.588,-49.805,-41.504,-31.738,48.340,0.000
1745527220.592,-43.457,-41.504,-26.855,53.711,0.000
1745527220.596,-45.410,-41.504,-30.762,45.898,0.000
1745527220.599,-41.016,-39.551,-29.785,48.828,0.000
1745527220.603,-37.109,-37.109,-29.785,49.316,0.000
1745527220.607,-47.852,-29.785,-26.367,55.664,0.000
1745527220.611,-47.363,-29.785,-22.461,51.758,0.000
1745527220.615,-32.715,-35.156,-33.691,49.316,0.000
1745527220.619,-22.461,-35.645,-29.297,63.965,0.000
1745527220.623,-20.508,-34.668,-26.855,55.664,0.000
1745527220.627,-27.344,-36.133,-23.438,45.410,0.000
1745527220.631,-32.715,-32.227,-25.391,48.828,0.000
1745527220.635,-31.738,-30.273,-25.879,41.504,0.000
1745527220.639,-25.879,-32.227,-18.555,48.340,0.000
1745527220.642,-18.555,-26.367,-32.715,58.594,0.000
1745527220.646,-19.043,-30.273,-27.344,51.758,0.000
1745527220.650,-18.555,-29.785,-20.996,34.180,0.000
1745527220.654,-20.508,-28.809,-25.879,37.109,0.000
1745527220.658,-19.043,-29.785,-28.809,46.387,0.000
1745527220.662,-18.555,-28.320,-31.250,50.293,0.000
1745527220.666,-23.926,-26.367,-25.879,56.641,0.000
1745527220.670,-20.996,-28.320,-18.066,54.199,0.000
1745527220.674,-7.812,-22.949,-24.414,59.082,0.000
1745527220.678,-7.324,-17.578,-32.715,74.707,0.000
1745527220.681,-26.855,-18.066,-21.973,71.289,0.000
1745527220.685,-36.621,-30.273,-21.484,43.945,0.000
1745527220.689,-52.734,-34.180,-29.297,27.832,0.000
1745527220.693,-51.270,-22.949,-25.879,49.316,0.000
1745527220.697,-28.809,-41.016,-24.902,62.012,0.000
1745527220.701,-26.367,-46.387,-24.902,60.059,0.000
1745527220.705,-37.109,-40.039,-22.461,62.500,0.000
1745527220.709,-34.668,-43.457,0.000,55.664,0.000
1745527220.713,-18.066,-47.852,0.000,49.805,0.000
1745527220.717,-23.926,-50.293,0.000,42.480,0.000
1745527220.721,-44.434,-51.270,0.000,45.898,0.000
1745527220.724,-30.762,-48.828,0.000,57.617,0.000
1745527220.728,-26.855,-41.992,0.000,54.688,0.000
1745527220.732,-29.785,-48.828,0.000,41.504,0.000
1745527220.736,-29.297,-55.176,0.000,51.270,0.000
1745527220.740,-33.691,-41.504,0.000,52.246,0.000
1745527220.744,-40.039,-49.316,0.000,40.527,0.000
1745527220.748,-68.848,-53.711,0.000,44.922,0.000
1745527220.752,-49.805,-47.852,0.000,46.387,0.000
1745527220.756,-20.508,-48.828,-19.043,53.223,0.000
1745527220.760,-25.391,-44.922,-8.789,44.922,0.000
1745527220.764,-30.273,-43.945,-9.766,38.086,0.000
1745527220.767,-24.414,-44.434,-14.648,40.039,0.000
1745527220.771,-15.625,-41.504,-14.648,37.109,0.000
1745527220.775,-16.602,-35.156,-17.090,50.293,0.000
1745527220.779,-24.902,-38.086,-20.020,42.969,0.000
1745527220.783,-11.230,-40.039,-19.043,55.176,0.000
1745527220.787,3.906,-30.273,-18.066,69.336,0.000
1745527220.791,-14.648,-27.832,-19.043,44.434,0.000
1745527220.795,-11.230,-25.391,-20.020,33.691,0.000
1745527220.799,-12.695,-24.414,-27.832,45.898,0.000
1745527220.803,-18.066,-28.320,-28.320,47.852,0.000
1745527220.807,-18.066,-22.461,-23.438,40.527,0.000
1745527220.810,-26.855,-19.531,-11.230,31.738,0.000
1745527220.814,-21.973,-24.414,-6.836,39.551,0.000
1745527220.818,-17.578,-23.926,-12.207,43.945,0.000
1745527220.822,-18.555,-19.043,-12.207,44.922,0.000
1745527220.826,-21.973,-21.973,-19.531,33.203,0.000
1745527220.830,-23.926,-24.902,-20.020,17.578,0.000
1745527220.834,-34.180,-23.438,-20.996,15.137,0.000
1745527220.838,-33.691,-29.785,-23.438,14.160,0.000
1745527220.842,-18.555,-29.297,-21.484,11.719,0.000
1745527220.846,-21.484,-25.879,-23.926,20.508,0.000
1745527220.849,-35.156,-32.715,-23.438,22.949,0.000
1745527220.853,-23.438,-30.273,-23.438,26.367,0.000
1745527220.857,-42.969,-20.996,-19.043,18.555,0.000
1745527220.861,-44.434,-22.949,-18.066,16.602,0.000
1745527220.865,-28.809,-20.020,-21.973,19.043,0.000
1745527220.869,-30.273,-13.184,-22.949,9.277,0.000
1745527220.873,-23.438,-22.461,-24.902,11.230,0.000
1745527220.877,-32.227,-27.832,-26.855,17.090,0.000
1745527220.881,-37.109,-19.043,-16.113,14.160,0.000
1745527220.885,-39.062,-14.160,-17.090,13.184,0.000
1745527220.888,-41.504,-13.672,-26.367,12.207,0.000
1745527220.892,-31.250,-15.625,-21.973,23.926,0.000
1745527220.896,-32.227,-20.508,-16.113,23.926,0.000
1745527220.900,-26.855,-20.996,-20.020,7.324,0.000
1745527220.904,-35.156,-27.344,-31.250,5.859,0.000
1745527220.908,-33.203,-27.344,-36.621,4.883,0.000
1745527220.912,-39.062,-31.738,-23.438,-6.348,0.000
1745527220.916,-39.062,-25.879,-34.180,2.441,0.000
1745527220.920,-30.273,-20.020,-42.969,2.930,0.000
1745527220.924,-52.246,-30.273,-39.551,-53.223,0.000
1745527220.928,-43.945,-28.809,-34.668,-24.902,0.000
1745527220.931,-48.340,-21.484,-38.086,-17.090,0.000
1745527220.935,-49.316,-24.902,-43.457,-35.156,0.000
1745527220.939,-25.879,-23.438,-22.461,-40.527,0.000
1745527220.943,-53.223,-21.484,0.000,-51.758,0.000
1745527220.947,-43.457,-30.762,0.000,0.488,0.000
1745527220.951,-33.691,-28.809,0.000,34.668,0.000
1745527220.955,-40.527,-32.715,0.000,40.039,0.000
1745527220.959,-23.926,-35.156,0.000,9.766,0.000
1745527220.963,-9.766,-33.203,0.000,15.137,0.000
1745527220.967,-29.785,-35.156,0.000,25.391,0.000
1745527220.971,-46.875,-30.762,0.000,6.836,0.000
1745527220.974,-41.992,-32.715,0.000,25.391,0.000
1745527220.978,-16.113,-36.133,0.000,33.203,0.000
1745527220.982,-19.531,-35.156,0.000,-8.789,0.000
1745527220.986,-37.598,-42.969,0.000,-25.391,0.000
1745527220.990,-40.527,-41.016,-28.320,-31.738,0.000
1745527220.994,-28.809,-33.691,-48.340,-38.574,0.000
1745527220.998,-23.438,-33.203,-38.086,-29.297,0.000
1745527221.002,-21.484,-29.785,-28.320,-31.738,0.000
1745527221.006,-29.297,-30.762,-28.809,-32.715,0.000
1745527221.010,-62.012,-31.738,-35.645,-55.176,0.000
1745527221.013,-58.105,-30.273,-33.691,-66.406,0.000
1745527221.017,-20.020,-40.039,-41.504,-27.344,0.000
1745527221.021,-20.020,-46.387,-39.551,-48.340,0.000
1745527221.025,-35.645,-40.039,-26.855,-58.594,0.000
1745527221.029,-68.359,-31.250,-32.715,-74.219,0.000
1745527221.033,-72.266,-34.180,-36.133,-94.727,0.000
1745527221.037,-38.574,-39.551,-22.949,-78.613,0.000
1745527221.041,-29.785,-34.180,-31.738,-88.867,0.000
1745527221.045,-38.086,-29.785,-31.250,-52.734,0.000
1745527221.049,-18.555,-32.715,-24.414,-66.895,0.000
1745527221.053,-21.484,-33.691,-23.438,-71.289,0.000
1745527221.056,-60.059,-28.809,-28.320,-68.848,0.000
1745527221.060,-53.223,-23.438,-33.691,-85.449,0.000
1745527221.064,-73.730,-34.180,-30.762,-71.289,0.000
1745527221.068,-51.270,-39.551,-30.273,-57.617,0.000
1745527221.072,-1.953,-29.785,-26.855,-63.477,0.000
1745527221.076,-0.488,-35.156,-27.832,-89.355,0.000
1745527221.080,-37.598,-41.504,-31.250,-96.680,0.000
1745527221.084,-62.500,-41.992,-24.902,-80.078,0.000
1745527221.088,-32.227,-38.086,-24.902,-73.242,0.000
1745527221.092,-11.230,-24.414,-28.320,-56.152,0.000
1745527221.096,-27.832,-28.320,-30.273,-34.180,0.000
1745527221.099,-11.230,-37.598,-24.414,-36.621,0.000
1745527221.103,11.719,-28.809,-19.531,-36.621,0.000
1745527221.107,-25.391,-30.762,-27.344,-29.297,0.000
1745527221.111,-22.461,-35.156,-33.691,-43.457,0.000
1745527221.115,10.254,-30.762,-22.461,-41.016,0.000
1745527221.119,-24.902,-28.320,-16.113,-38.086,0.000
1745527221.123,-45.898,-20.996,-22.461,-42.480,0.000
1745527221.127,-7.812,-20.508,-20.996,-23.926,0.000
1745527221.131,-27.832,-36.621,-3.418,-35.645,0.000
1745527221.135,-14.648,-33.691,-26.367,-25.391,0.000
1745527221.139,-0.977,-26.855,-37.109,-12.207,0.000
1745527221.142,-38.574,-28.809,-22.461,-12.207,0.000
1745527221.146,-13.184,-25.391,-22.461,-14.160,0.000
1745527221.150,-32.227,-30.273,-20.996,-30.273,0.000
1745527221.154,-32.227,-27.832,-20.020,-34.180,0.000
1745527221.158,-1.465,-28.809,-22.949,-22.949,0.000
1745527221.162,-28.320,-27.832,-33.691,-34.180,0.000
1745527221.166,-7.812,-14.160,-40.527,-53.223,0.000
1745527221.170,-6.348,-32.227,-31.738,-12.695,0.000
1745527221.174,-35.645,-39.062,-26.367,-0.488,0.000
1745527221.178,0.000,-31.738,-21.484,-17.090,0.000
1745527221.181,0.000,-35.645,-27.344,-8.789,0.000
1745527221.185,0.000,-25.879,-28.320,-27.832,0.000
1745527221.189,0.000,-27.344,-29.297,0.488,0.000
1745527221.193,0.000,-34.180,-31.738,-6.348,0.000
1745527221.197,0.000,-33.691,-28.320,-28.320,0.000
1745527221.201,0.000,-32.715,-29.785,-28.809,0.000
1745527221.205,0.000,-23.438,-31.250,-26.367,0.000
1745527221.209,0.000,-38.574,-8.789,-20.020,0.000
1745527221.213,0.000,-39.551,-18.066,12.207,0.000
1745527221.217,0.000,-29.785,-28.809,10.742,0.000
1745527221.220,0.000,-32.227,-16.602,-8.301,0.000
1745527221.224,0.000,-32.227,0.000,3.418,0.000
1745527221.228,0.000,-24.902,0.000,0.000,0.000
1745527221.232,-13.184,-16.602,0.000,-19.531,0.000
1745527221.236,4.883,-28.320,0.000,-19.043,0.000
1745527221.240,-14.648,-37.109,0.000,-3.906,0.000
1745527221.244,-30.762,-31.738,0.000,0.977,0.000
1745527221.248,-41.504,-32.227,0.000,-3.418,0.000
1745527221.252,16.113,-34.180,0.000,3.418,0.000
1745527221.256,18.066,-31.738,0.000,-8.301,0.000
1745527221.260,2.930,-33.203,0.000,-17.578,0.000
1745527221.263,32.715,-36.621,0.000,-12.207,0.000
1745527221.267,21.484,-37.109,0.000,-10.254,0.000
1745527221.271,-15.625,-33.691,-10.742,25.391,0.000
1745527221.275,9.277,-33.203,-17.578,51.758,0.000
1745527221.279,51.270,-32.227,-26.855,67.383,0.000
1745527221.283,26.367,-25.391,-12.207,72.266,0.000
1745527221.287,14.648,-23.438,-20.508,13.672,0.000
1745527221.291,15.137,-16.602,-37.109,4.883,0.000
1745527221.295,14.648,-10.742,-19.531,61.523,0.000
1745527221.299,26.855,-17.090,-18.555,84.961,0.000
1745527221.303,23.926,-22.461,-29.785,95.703,0.000
1745527221.306,-15.625,-24.414,-23.926,102.051,0.000
1745527221.310,19.531,-24.902,-31.738,94.238,0.000
1745527221.314,61.523,-22.461,-41.992,91.309,0.000
1745527221.318,90.820,-20.508,-34.668,77.637,0.000
1745527221.322,71.289,-19.043,-37.598,59.570,0.000
1745527221.326,70.312,-13.672,-44.434,101.074,0.000
1745527221.330,70.801,-16.113,-32.227,113.281,0.000
1745527221.334,97.168,-13.672,-22.949,105.957,0.000
1745527221.338,97.168,-9.277,-24.414,95.703,0.000
1745527221.342,100.586,-6.836,-44.434,76.660,0.000
1745527221.345,113.281,-18.066,-44.922,82.520,0.000
1745527221.349,63.965,-31.250,-26.855,90.820,0.000
1745527221.353,54.199,-17.090,-28.320,69.336,0.000
1745527221.357,79.102,-11.230,-38.086,54.199,0.000
1745527221.361,62.500,-25.879,-43.457,79.102,0.000
1745527221.365,61.523,-32.227,-39.062,65.918,0.000
1745527221.369,100.586,-18.555,-40.039,73.730,0.000
1745527221.373,113.281,-15.137,-39.062,96.191,0.000
1745527221.377,97.656,-19.043,-34.180,68.359,0.000
1745527221.381,98.145,-28.320,-25.391,52.246,0.000
1745527221.385,79.590,-29.297,-28.809,85.938,0.000
1745527221.388,63.965,-21.484,-35.645,76.660,0.000
1745527221.392,42.969,-30.762,-31.250,55.176,0.000
1745527221.396,36.133,-39.062,-23.926,53.223,0.000
1745527221.400,73.242,-30.762,-27.832,47.852,0.000
1745527221.404,61.035,-31.250,-25.879,33.203,0.000
1745527221.408,52.246,-30.273,-23.438,28.809,0.000
1745527221.412,44.434,-13.184,-24.414,53.711,0.000
1745527221.416,25.391,-14.160,-31.738,31.250,0.000
1745527221.420,70.312,-37.109,-30.273,41.016,0.000
1745527221.424,65.918,-32.715,-18.555,52.734,0.000
1745527221.428,50.781,-21.973,-23.438,54.199,0.000
1745527221.431,73.730,-21.973,-23.438,37.598,0.000
1745527221.435,66.406,-24.902,-20.508,26.855,0.000
1745527221.439,58.594,-32.227,-27.344,26.855,0.000
1745527221.443,58.105,-34.668,-31.250,26.855,0.000
1745527221.447,6.348,-35.156,-28.809,8.301,0.000
1745527221.451,19.043,-30.273,-34.180,15.625,0.000
1745527221.455,39.062,-24.414,-37.109,29.297,0.000
1745527221.459,58.105,-22.461,-36.133,9.277,0.000
1745527221.463,28.320,-29.297,-34.180,5.371,0.000
1745527221.467,15.625,-32.715,-27.344,11.719,0.000
1745527221.471,9.277,-33.691,-23.926,20.020,0.000
1745527221.474,10.742,-26.855,-29.297,0.488,0.000
1745527221.478,35.156,-17.090,-28.809,-6.348,0.000
1745527221.482,22.949,-14.160,-31.250,3.418,0.000
1745527221.486,11.230,-13.184,-24.414,0.977,0.000
1745527221.490,22.949,-23.926,-12.695,-24.902,0.000
1745527221.494,33.691,-20.508,-35.645,-8.789,0.000
1745527221.498,16.113,-18.066,-37.598,1.465,0.000
1745527221.502,1.465,-20.996,-29.297,-18.555,0.000
1745527221.506,-7.812,-17.578,-32.227,2.930,0.000
1745527221.510,40.527,-17.578,-30.762,1.953,0.000
1745527221.513,45.410,-20.020,-32.227,-10.254,0.000
1745527221.517,10.254,-26.855,-28.809,7.812,0.000
1745527221.521,22.461,-29.785,-23.926,15.625,0.000
1745527221.525,20.996,-27.344,-36.621,7.812,0.000
1745527221.529,0.977,-24.902,-37.598,7.324,0.000
1745527221.533,5.371,-30.762,-31.738,0.000,0.000
1745527221.537,26.367,-37.598,-36.621,1.953,0.000
1745527221.541,51.758,-32.715,-39.551,1.465,0.000
1745527221.545,31.738,-35.645,-37.109,3.906,0.000
1745527221.549,21.484,-39.062,-38.574,-6.836,0.000
1745527221.553,31.738,-35.156,-32.227,-11.719,0.000
1745527221.556,22.949,-32.715,-26.855,-0.488,0.000
1745527221.560,-4.395,-35.645,-23.926,-22.949,0.000
1745527221.564,1.953,-37.109,-29.785,-29.297,0.000
1745527221.568,25.879,-33.691,-31.250,-9.277,0.000
1745527221.572,26.855,-25.879,-31.738,12.695,0.000
1745527221.576,8.301,-25.879,-33.203,9.277,0.000
1745527221.580,-37.109,-34.180,-28.320,-1.465,0.000
1745527221.584,11.230,-29.785,-28.320,-7.324,0.000
1745527221.588,25.879,-28.320,-29.297,-34.668,0.000
1745527221.592,-4.883,-33.203,-39.551,-33.203,0.000
1745527221.595,22.949,-32.715,-39.551,4.395,0.000
1745527221.599,11.230,-30.762,-30.762,7.812,0.000
1745527221.603,-33.203,-33.203,-33.691,-5.371,0.000
1745527221.607,-19.043,-35.645,-40.039,-12.207,0.000
1745527221.611,23.926,-37.109,-39.062,-12.207,0.000
1745527221.615,25.391,-33.203,-38.574,-23.926,0.000
1745527221.619,-8.301,-31.738,-37.109,-18.066,0.000
1745527221.623,-6.836,-31.738,-35.645,-2.930,0.000
1745527221.627,5.371,-36.621,-39.551,-5.859,0.000
1745527221.631,-2.930,-35.156,-42.969,-7.324,0.000
1745527221.635,-3.906,-30.762,-36.133,-1.465,0.000
1745527221.638,5.859,-33.203,-29.785,10.254,0.000
1745527221.642,2.441,-27.832,-41.016,24.902,0.000
1745527221.646,-29.785,-27.344,-39.551,38.574,0.000
1745527221.650,-12.207,-26.367,-35.645,36.621,0.000
1745527221.654,27.344,-23.438,-41.992,51.758,0.000
1745527221.658,1.465,-21.484,-42.969,89.844,0.000
1745527221.662,-24.414,-25.391,-33.203,111.328,0.000
1745527221.666,-8.789,-22.949,-34.668,130.859,0.000
1745527221.670,12.207,-19.531,-38.574,146.973,0.000
1745527221.674,-3.906,-27.344,-35.645,138.184,0.000
1745527221.677,-16.113,-29.297,-39.551,140.625,0.000
1745527221.681,-7.812,-28.320,-45.898,145.996,0.000
1745527221.685,-11.230,-25.879,-41.992,139.160,0.000
1745527221.689,-16.113,-23.926,-31.250,149.902,0.000
1745527221.693,-21.484,-25.391,-26.367,148.438,0.000
1745527221.697,-1.465,-26.367,-40.039,150.879,0.000
1745527221.701,-5.859,-31.738,-40.039,152.344,0.000
1745527221.705,-20.996,-35.645,-34.180,139.648,0.000
1745527221.709,-15.137,-33.691,-39.551,128.906,0.000
1745527221.713,-10.742,-30.273,-32.715,128.906,0.000
1745527221.717,7.324,-30.762,-27.832,121.094,0.000
1745527221.720,15.625,-32.227,-24.414,116.699,0.000
1745527221.724,-8.301,-28.809,-21.484,135.742,0.000
1745527221.728,-9.766,-29.297,-24.902,124.023,0.000
1745527221.732,-8.789,-32.227,-26.855,103.516,0.000
1745527221.736,-24.414,-41.992,-28.320,85.938,0.000
1745527221.740,-31.250,-40.527,-36.133,89.355,0.000
1745527221.744,-4.883,-32.227,-38.574,97.168,0.000
1745527221.748,-1.953,-30.762,-34.668,104.980,0.000
1745527221.752,-6.348,-28.809,-30.762,83.008,0.000
1745527221.756,-8.301,-30.273,-26.855,69.336,0.000
1745527221.760,-25.879,-25.879,-23.926,83.008,0.000
1745527221.763,-11.230,-25.391,-13.184,93.262,0.000
1745527221.767,9.277,-31.738,-24.902,93.262,0.000
1745527221.771,7.324,-32.227,-26.855,84.961,0.000
1745527221.775,9.277,-25.879,-17.578,86.914,0.000
1745527221.779,1.465,-24.902,-22.461,86.426,0.000
1745527221.783,-12.207,-31.250,-27.344,61.035,0.000
1745527221.787,-36.621,-29.785,-28.809,56.641,0.000
1745527221.791,-16.113,-23.438,-24.902,69.824,0.000
1745527221.795,-2.441,-24.902,-15.137,59.570,0.000
1745527221.799,7.324,-25.391,-19.043,51.758,0.000
1745527221.803,11.230,-24.414,-23.926,60.547,0.000
1745527221.806,-12.207,-26.367,-19.043,39.062,0.000
1745527221.810,-8.789,-25.879,-26.367,39.062,0.000
1745527221.814,-8.789,-26.855,-28.320,38.086,0.000
1745527221.818,-11.719,-31.250,-21.484,40.039,0.000
1745527221.822,-6.836,-33.691,-25.391,41.992,0.000
1745527221.826,-22.461,-34.668,-26.367,26.855,0.000
1745527221.830,-26.367,-28.809,-20.020,28.320,0.000
1745527221.834,-14.648,-25.879,-28.320,44.922,0.000
1745527221.838,-13.184,-26.855,-29.297,32.227,0.000
1745527221.842,-18.066,-26.855,-26.855,15.625,0.000
1745527221.845,-25.391,-29.297,-32.227,20.996,0.000
1745527221.849,-20.020,-27.832,-32.715,17.578,0.000
1745527221.853,-18.555,-22.461,-28.320,14.160,0.000
1745527221.857,-22.461,-28.809,-27.344,-3.418,0.000
1745527221.861,-25.391,-41.504,-36.133,2.441,0.000
1745527221.865,-30.762,-37.598,-39.062,22.461,0.000
1745527221.869,-17.090,-33.203,-31.738,11.230,0.000
1745527221.873,-35.156,-39.551,-34.668,-6.348,0.000
1745527221.877,-58.594,-41.016,-32.715,7.812,0.000
1745527221.881,0.000,-34.180,-31.250,6.836,0.000
1745527221.885,0.000,-30.273,-35.156,-2.441,0.000
1745527221.888,0.000,-30.762,-31.250,11.230,0.000
1745527221.892,0.000,-32.715,-34.180,6.836,0.000
1745527221.896,0.000,-31.738,-38.086,-0.488,0.000
1745527221.900,0.000,-28.320,-31.250,-7.812,0.000
1745527221.904,0.000,-33.203,-29.785,-7.812,0.000
1745527221.908,0.000,-41.016,-36.133,4.883,0.000
1745527221.912,0.000,-40.039,-32.715,4.883,0.000
1745527221.916,0.000,-43.457,-33.203,-13.672,0.000
1745527221.920,0.000,-45.410,-31.738,-18.555,0.000
1745527221.924,0.000,-39.062,-23.438,-7.812,0.000
1745527221.928,-27.344,-36.621,-29.785,-10.254,0.000
1745527221.931,-20.996,-34.180,-37.109,-10.254,0.000
1745527221.935,-19.043,-29.785,-29.785,-5.371,0.000
1745527221.939,-32.227,-32.227,-22.461,-20.996,0.000
1745527221.943,-45.898,-29.785,-31.250,-22.461,0.000
1745527221.947,-27.344,-24.414,-27.832,-19.531,0.000
1745527221.951,-15.137,-30.273,-23.438,-16.602,0.000
1745527221.955,-35.645,-41.016,-28.809,-18.555,0.000
1745527221.959,-43.945,-42.480,-29.785,-30.762,0.000
1745527221.963,-25.391,-36.621,-32.715,-23.926,0.000
1745527221.967,-27.832,-32.227,-30.762,-4.395,0.000
1745527221.970,-38.086,-29.297,-25.391,-4.395,0.000
1745527221.974,-29.297,-28.809,-27.344,-27.344,0.000
1745527221.978,-48.340,-33.203,-29.297,-37.109,0.000
1745527221.982,-48.828,-33.203,-20.508,-21.484,0.000
1745527221.986,-21.484,-36.621,-29.297,-10.742,0.000
1745527221.990,-22.949,-35.156,-34.180,-10.742,0.000
1745527221.994,-24.414,-25.391,-27.344,-19.531,0.000
1745527221.998,-20.996,-22.949,-28.809,-28.809,0.000
1745527222.002,-31.738,-29.297,-30.273,-21.973,0.000
1745527222.006,-13.184,-25.391,-38.086,-22.461,0.000
1745527222.009,-29.785,-21.973,-40.039,-32.715,0.000
1745527222.013,-31.250,-21.973,-31.250,-20.996,0.000
1745527222.017,-16.602,-23.438,-25.879,-13.184,0.000
1745527222.021,0.000,-22.949,-22.949,-16.113,0.000
1745527222.025,0.000,-23.926,-29.297,-10.742,0.000
1745527222.029,0.000,-30.273,-37.598,-17.090,0.000
1745527222.033,0.000,-29.785,-32.715,-34.180,0.000
1745527222.037,0.000,-24.902,-34.180,-24.902,0.000
1745527222.041,0.000,-20.996,-35.156,-17.090,0.000
1745527222.045,0.000,-24.902,-36.621,-13.184,0.000
1745527222.049,0.000,-32.715,-37.109,-13.672,0.000
1745527222.052,0.000,-36.133,-37.109,-14.160,0.000
1745527222.056,0.000,-28.320,-36.133,-10.742,0.000
1745527222.060,0.000,-26.367,-22.461,-11.230,0.000
1745527222.064,0.000,-29.297,-28.320,-17.578,0.000
1745527222.068,-25.391,-22.949,-30.273,-10.254,0.000
1745527222.072,-38.574,-25.879,-26.855,-2.930,0.000
1745527222.076,-35.156,-29.297,-32.715,-18.555,0.000
1745527222.080,-34.180,-26.855,-28.320,-30.273,0.000
1745527222.084,-15.137,-33.203,-29.785,-24.414,0.000
1745527222.088,-19.531,-34.180,-31.250,-23.926,0.000
1745527222.092,-20.996,-29.785,-28.809,-41.504,0.000
1745527222.095,-16.113,-31.250,-30.273,-28.320,0.000
1745527222.099,-20.508,-38.086,-34.668,-22.461,0.000
1745527222.103,-7.324,-32.715,-32.227,-25.879,0.000
1745527222.107,-18.066,-28.809,-33.203,-22.461,0.000
1745527222.111,-31.738,-28.809,-37.598,-32.227,0.000
1745527222.115,0.000,-28.320,-32.715,-42.969,0.000
1745527222.119,0.000,-27.344,-37.598,-24.902,0.000
1745527222.123,0.000,-25.879,-42.969,-15.137,0.000
1745527222.127,0.000,-26.855,-32.227,-16.113,0.000
1745527222.131,0.000,-25.391,-28.809,-20.020,0.000
1745527222.135,0.000,-19.043,-30.273,-20.508,0.000
1745527222.138,0.000,-15.137,-32.715,-15.625,0.000
1745527222.142,0.000,-23.438,-36.621,-21.484,0.000
1745527222.146,0.000,-27.344,-35.156,-25.879,0.000
1745527222.150,0.000,-22.949,-34.668,-30.762,0.000
1745527222.154,0.000,-23.438,-31.738,-30.273,0.000
1745527222.158,0.000,-33.203,-37.598,-22.461,0.000
1745527222.162,-12.207,-30.273,-40.039,-15.137,0.000
1745527222.166,-29.297,-23.926,-35.645,-19.531,0.000
1745527222.170,-27.344,-24.902,-32.227,-14.648,0.000
1745527222.174,-43.945,-27.344,-33.203,-20.508,0.000
1745527222.177,-39.062,-31.738,-33.203,-40.527,0.000
1745527222.181,-20.020,-32.715,-27.344,-42.480,0.000
1745527222.185,-26.855,-33.203,-41.992,-27.344,0.000
1745527222.189,-27.832,-31.250,-44.434,-34.668,0.000
1745527222.193,-28.320,-34.668,-34.668,-32.715,0.000
1745527222.197,-38.574,-38.574,-32.227,-28.320,0.000
1745527222.201,-32.715,-38.086,-27.832,-39.062,0.000
1745527222.205,-24.414,-34.668,-32.227,-29.785,0.000
1745527222.209,-37.598,-31.250,-34.180,-28.320,0.000
1745527222.213,-39.551,-37.598,-29.297,-40.527,0.000
1745527222.217,-31.738,-35.645,-28.809,-28.809,0.000
1745527222.220,-31.738,-30.273,-30.273,-20.996,0.000
1745527222.224,-40.039,-34.180,-35.156,-31.250,0.000
1745527222.228,-43.457,-35.645,-33.203,-37.598,0.000
1745527222.232,-31.738,-34.668,-33.691,-33.203,0.000
1745527222.236,-42.480,-41.016,-37.109,-23.926,0.000
1745527222.240,-38.574,-38.086,-31.738,-20.020,0.000
1745527222.244,-27.832,-36.621,-33.203,-25.879,0.000
1745527222.248,-35.156,-38.574,-38.086,-29.297,0.000
1745527222.252,-43.457,-35.645,-33.691,-26.855,0.000
1745527222.256,-39.551,-30.762,0.000,-17.578,0.000
1745527222.260,-24.414,-29.785,0.000,-18.555,0.000
1745527222.263,-39.062,-28.320,0.000,-14.160,0.000
1745527222.267,-54.199,-33.203,0.000,-4.395,0.000
1745527222.271,-23.438,-35.645,0.000,-10.742,0.000
1745527222.275,-22.461,-32.227,0.000,-16.602,0.000
1745527222.279,-30.273,-31.738,0.000,-19.531,0.000
1745527222.283,-30.762,-34.668,0.000,-12.695,0.000
1745527222.287,-37.598,-34.180,0.000,-15.625,0.000
1745527222.291,-28.320,-30.273,0.000,-20.996,0.000
1745527222.295,-28.320,-32.715,0.000,-23.438,0.000
1745527222.299,-36.133,-37.598,0.000,-35.156,0.000
1745527222.303,-45.410,-38.086,-41.504,-42.480,0.000
1745527222.306,-46.387,-35.645,-35.645,-24.902,0.000
1745527222.310,-34.668,-36.621,-30.762,-14.160,0.000
1745527222.314,-18.066,-37.109,-43.945,-15.625,0.000
1745527222.318,-19.531,-42.480,-37.598,-20.508,0.000
1745527222.322,-42.480,-41.992,-24.414,-29.785,0.000
1745527222.326,-48.340,-38.086,-22.461,-24.414,0.000
1745527222.330,-48.340,-49.316,-25.391,-18.555,0.000
1745527222.334,-56.152,-55.176,-19.531,-27.344,0.000
1745527222.338,-76.172,-52.734,-8.301,-22.949,0.000
1745527222.341,-47.363,-55.176,-12.207,-22.461,0.000
1745527222.345,-36.133,-54.688,-16.113,-23.438,0.000
1745527222.349,-51.270,-57.617,-10.742,-29.785,0.000
1745527222.353,-34.180,-53.223,-12.695,-29.785,0.000
1745527222.357,-37.598,-45.898,-18.555,-24.902,0.000
1745527222.361,-56.152,-47.852,-17.578,-30.273,0.000
1745527222.365,-52.734,-47.363,-19.531,-29.297,0.000
1745527222.369,-50.781,-41.992,-18.066,-29.297,0.000
1745527222.373,-51.758,-49.805,-13.184,-32.715,0.000
1745527222.377,-51.270,-54.688,-16.602,-18.066,0.000
1745527222.381,-42.969,-48.340,-17.090,-12.207,0.000
1745527222.384,-52.734,-49.805,-18.066,-25.391,0.000
1745527222.388,-41.016,-50.293,-22.949,-29.297,0.000
1745527222.392,-21.973,-47.852,-24.902,-20.020,0.000
1745527222.396,-38.086,-48.340,-26.855,-20.996,0.000
1745527222.400,-54.688,-46.875,-31.738,-27.832,0.000
1745527222.404,-41.992,-44.922,-27.832,-31.250,0.000
1745527222.408,-42.969,-44.922,-22.461,-32.715,0.000
1745527222.412,-45.410,-41.504,-27.344,-19.531,0.000
1745527222.416,-32.715,-37.598,-21.973,-10.254,0.000
1745527222.420,-41.016,-38.574,-22.461,-18.066,0.000
1745527222.424,-36.133,-41.016,-22.949,-19.531,0.000
1745527222.427,-36.621,-46.387,-19.531,-12.207,0.000
1745527222.431,-41.016,-46.387,-19.043,-12.207,0.000
1745527222.435,-35.645,-37.598,-18.555,-11.230,0.000
1745527222.439,-24.902,-39.551,-13.672,-16.113,0.000
1745527222.443,0.000,-36.621,-13.672,-12.207,0.000
1745527222.447,0.000,-35.645,-17.090,-12.695,0.000
1745527222.451,0.000,-33.691,-17.578,-20.508,0.000
1745527222.455,0.000,-27.344,-14.160,-12.695,0.000
1745527222.459,0.000,-31.738,-13.672,-18.555,0.000
1745527222.463,0.000,-36.133,-16.113,-26.367,0.000
1745527222.467,0.000,-36.133,-6.348,-26.367,0.000
1745527222.470,0.000,-37.598,-18.555,-27.344,0.000
1745527222.474,0.000,-39.062,-31.738,-25.391,0.000
1745527222.478,0.000,-37.109,-27.344,-31.738,0.000
1745527222.482,0.000,-32.715,-27.344,-35.645,0.000
1745527222.486,0.000,-31.250,-28.320,-40.039,0.000
1745527222.490,-36.133,-32.227,-29.297,-34.668,0.000
1745527222.494,-45.410,-34.668,-29.297,-35.156,0.000
1745527222.498,-43.945,-37.109,-24.414,-49.316,0.000
1745527222.502,-40.039,-44.434,-30.762,-43.945,0.000
1745527222.506,-41.992,-42.480,-33.203,-36.621,0.000
1745527222.509,-26.367,-31.738,-25.391,-37.109,0.000
1745527222.513,-30.762,-33.203,-24.414,-29.297,0.000
1745527222.517,-44.922,-32.715,-26.855,-33.203,0.000
1745527222.521,-32.715,-33.691,-33.203,-44.434,0.000
1745527222.525,-33.691,-34.668,-32.227,-24.414,0.000
1745527222.529,-33.203,-32.227,-29.785,-22.461,0.000
1745527222.533,-23.438,-30.762,-30.273,-29.297,0.000
1745527222.537,-11.230,-27.344,0.000,-15.137,0.000
1745527222.541,-19.043,-24.902,0.000,-14.160,0.000
1745527222.545,-20.020,-31.738,0.000,-22.461,0.000
1745527222.549,-25.391,-34.180,0.000,-30.273,0.000
1745527222.552,-31.250,-33.691,0.000,-34.180,0.000
1745527222.556,-34.180,-29.297,0.000,-23.926,0.000
1745527222.560,-14.648,-26.367,0.000,-20.508,0.000
1745527222.564,-17.578,-36.133,0.000,-27.832,0.000
1745527222.568,-16.113,-34.668,0.000,-23.926,0.000
1745527222.572,-26.855,-32.227,0.000,-36.621,0.000
1745527222.576,-38.574,-32.227,0.000,-39.062,0.000
1745527222.580,-14.648,-31.250,0.000,-38.574,0.000
1745527222.584,-14.648,-35.156,-29.297,0.000,0.000
1745527222.588,-24.414,-38.574,-29.785,0.000,0.000
1745527222.592,-39.062,-39.062,-38.574,0.000,0.000
1745527222.595,-40.527,-36.621,-37.598,0.000,0.000
1745527222.599,-40.527,-39.062,-34.668,0.000,0.000
1745527222.603,-46.875,-34.668,-29.785,0.000,0.000
1745527222.607,-33.691,-27.344,-26.367,0.000,0.000
1745527222.611,-33.203,-31.250,-28.809,0.000,0.000
1745527222.615,-47.363,-36.133,-25.879,0.000,0.000
1745527222.619,-32.227,-36.621,-25.879,0.000,0.000
1745527222.623,-27.832,-30.762,-28.809,0.000,0.000
1745527222.627,-26.855,-24.414,-21.973,0.000,0.000
1745527222.631,-28.809,-24.902,-17.578,-33.203,0.000
1745527222.635,-47.852,-28.809,-29.785,-41.992,0.000
1745527222.638,-38.574,-31.250,-30.762,-45.410,0.000
1745527222.642,-47.363,-28.809,-28.809,-39.551,0.000
1745527222.646,-50.293,-31.250,-27.344,-34.180,0.000
1745527222.650,-30.273,-26.367,-28.809,-37.598,0.000
1745527222.654,-32.227,-20.996,-31.250,-41.504,0.000
1745527222.658,-30.273,-28.320,-28.809,-38.574,0.000
1745527222.662,-28.320,-26.367,-30.273,-40.039,0.000
1745527222.666,-25.391,-26.855,-36.621,-42.480,0.000
1745527222.670,-27.344,-29.785,-31.738,-44.922,0.000
1745527222.673,-36.621,-21.484,-25.391,-42.969,0.000
1745527222.677,-61.035,-23.926,0.000,-38.574,0.000
1745527222.681,-42.969,-32.227,0.000,-47.852,0.000
1745527222.685,-40.527,-32.715,0.000,-53.223,0.000
1745527222.689,-55.176,-31.738,0.000,-45.410,0.000
1745527222.693,-36.133,-31.250,0.000,-42.480,0.000
1745527222.697,-30.762,-26.855,0.000,-45.898,0.000
1745527222.701,-35.645,-29.297,0.000,-41.016,0.000
1745527222.705,-28.320,-35.156,0.000,-44.434,0.000
1745527222.709,-36.621,-34.668,0.000,-51.270,0.000
1745527222.713,-33.203,-33.203,0.000,-49.316,0.000
1745527222.716,-44.434,-29.297,0.000,-50.293,0.000
1745527222.720,-55.664,-24.414,0.000,-56.641,0.000
1745527222.724,-32.715,-26.367,-32.227,-54.199,0.000
1745527222.728,-35.645,-29.785,-39.062,-40.039,0.000
1745527222.732,-38.574,-29.785,-39.062,-37.109,0.000
1745527222.736,-34.180,-33.203,-38.574,-55.664,0.000
1745527222.740,-49.316,-33.203,-40.039,-46.875,0.000
1745527222.744,-48.828,-24.414,-39.062,-33.691,0.000
1745527222.748,-30.273,-22.949,-32.227,-39.062,0.000
1745527222.752,-21.973,-30.762,-33.203,-37.598,0.000
1745527222.756,-28.320,-32.227,-37.598,-44.434,0.000
1745527222.759,-27.344,-33.203,-34.180,-52.734,0.000
1745527222.763,-41.504,-28.809,-31.250,-46.387,0.000
1745527222.767,-34.180,-30.762,-34.180,-46.387,0.000
1745527222.771,0.000,-38.574,-35.156,-46.875,0.000
1745527222.775,0.000,-41.992,-32.715,-46.875,0.000
1745527222.779,0.000,-39.062,-34.180,-40.527,0.000
1745527222.783,0.000,-41.504,-30.273,-39.062,0.000
1745527222.787,0.000,-42.969,-23.438,-39.551,0.000
1745527222.791,0.000,-36.133,-29.785,-40.527,0.000
1745527222.795,0.000,-34.668,-29.297,-36.621,0.000
1745527222.799,0.000,-34.668,-25.879,-28.809,0.000
1745527222.802,0.000,-34.668,-28.320,-35.156,0.000
1745527222.806,0.000,-39.551,-29.785,-43.945,0.000
1745527222.810,0.000,-38.574,-30.273,-44.922,0.000
1745527222.814,0.000,-38.574,-34.180,-42.969,0.000
1745527222.818,-41.504,-44.434,-33.203,-38.086,0.000
1745527222.822,-49.805,-47.363,-32.227,-32.227,0.000
1745527222.826,-24.902,-40.527,-34.180,-32.227,0.000
1745527222.830,-25.391,-32.227,-28.809,-37.598,0.000
1745527222.834,-31.738,-24.414,-23.438,-37.109,0.000
1745527222.838,-38.086,-22.461,-26.855,-32.227,0.000
1745527222.842,-39.062,-26.855,-30.273,-38.086,0.000
1745527222.845,-29.297,-30.762,-22.461,-41.504,0.000
1745527222.849,-20.508,-26.855,-33.203,-33.691,0.000
1745527222.853,-44.922,-27.344,-39.062,-32.227,0.000
1745527222.857,-42.480,-30.273,-32.715,-23.926,0.000
1745527222.861,-18.066,-30.273,-31.738,-15.625,0.000
1745527222.865,-19.531,-25.879,0.000,-20.996,0.000
1745527222.869,-22.949,-29.297,0.000,-24.414,0.000
1745527222.873,-25.879,-35.645,0.000,-19.043,0.000
1745527222.877,-38.086,-32.715,0.000,-21.484,0.000
1745527222.881,-31.738,-24.902,0.000,-24.414,0.000
1745527222.884,-13.184,-25.879,0.000,-18.066,0.000
1745527222.888,-26.855,-31.250,0.000,-18.555,0.000
1745527222.892,-26.367,-36.621,0.000,-17.578,0.000
1745527222.896,-33.203,-40.527,0.000,-22.461,0.000
1745527222.900,-34.180,-33.203,0.000,-24.902,0.000
1745527222.904,-39.062,-32.227,0.000,-27.344,0.000
1745527222.908,-38.086,-33.691,0.000,-32.227,0.000
1745527222.912,-39.062,-31.738,-22.949,-32.715,0.000
1745527222.916,-41.992,-28.809,-28.809,-26.855,0.000
1745527222.920,-15.137,-20.996,-26.367,-18.555,0.000
1745527222.924,-12.207,-26.367,-23.438,-20.508,0.000
1745527222.927,-22.461,-33.203,-26.855,-25.391,0.000
1745527222.931,-34.668,-26.855,-28.809,-29.297,0.000
1745527222.935,-30.273,-26.367,-24.414,-30.273,0.000
1745527222.939,-40.039,-35.645,-30.273,-25.879,0.000
1745527222.943,-56.152,-39.551,-37.598,-28.320,0.000
1745527222.947,-46.875,-35.645,-34.668,-33.691,0.000
1745527222.951,-49.805,-37.598,-35.645,-39.551,0.000
1745527222.955,-32.715,-37.109,-33.203,-45.410,0.000
1745527222.959,-26.855,-32.227,-30.273,-36.621,0.000
1745527222.963,-36.621,-37.109,-26.855,-25.879,0.000
1745527222.967,-39.062,-39.551,-24.414,-30.762,0.000
1745527222.970,-37.109,-38.574,-21.484,-33.203,0.000
1745527222.974,-45.410,-36.621,-29.785,-21.973,0.000
1745527222.978,-52.734,-33.203,-33.203,-25.391,0.000
1745527222.982,-44.922,-30.273,-31.738,-25.391,0.000
1745527222.986,-37.598,-36.621,-29.297,-24.414,0.000
1745527222.990,-35.645,-42.480,-22.949,-21.973,0.000
1745527222.994,-33.203,-39.062,-23.926,-19.531,0.000
1745527222.998,-29.785,-36.133,-25.391,-20.020,0.000
1745527223.002,-35.156,-32.715,-21.484,-15.137,0.000
1745527223.006,-28.320,-25.879,-31.738,-16.113,0.000
1745527223.009,-8.789,-24.414,-37.598,-15.137,0.000
1745527223.013,-35.156,-27.344,-33.203,-21.484,0.000
1745527223.017,-33.203,-30.273,-39.062,-25.391,0.000
1745527223.021,-18.555,-31.250,-41.016,-27.832,0.000
1745527223.025,-29.785,-25.879,-33.203,-34.180,0.000
1745527223.029,-23.926,-23.926,-34.668,-28.320,0.000
1745527223.033,-19.531,-27.832,-38.574,-26.367,0.000
1745527223.037,-19.043,-28.320,-38.574,-24.902,0.000
1745527223.041,-32.227,-30.273,-36.133,-26.855,0.000
1745527223.045,-26.855,-29.785,-37.109,-40.039,0.000
1745527223.048,-36.133,-23.926,-45.898,-40.527,0.000
1745527223.052,-31.738,-27.344,-43.457,-40.039,0.000
1745527223.056,-35.156,-28.809,-36.621,-40.039,0.000
1745527223.060,-42.480,-20.020,-27.832,-33.203,0.000
1745527223.064,-15.137,-28.809,-26.367,-32.715,0.000
1745527223.068,-29.297,-39.062,-35.645,-42.480,0.000
1745527223.072,-27.832,-32.715,-34.668,-46.387,0.000
1745527223.076,-12.207,-23.438,-38.574,-29.785,0.000
1745527223.080,-19.531,-23.438,-33.691,-20.508,0.000
1745527223.084,-38.086,-30.762,-26.367,-25.879,0.000
1745527223.088,-55.664,-30.273,-28.809,-26.367,0.000
1745527223.091,-38.574,-22.949,-25.879,-23.926,0.000
1745527223.095,-27.832,-27.344,-29.297,-30.273,0.000
1745527223.099,0.000,-35.645,-35.156,-38.086,0.000
1745527223.103,0.000,-36.621,-37.598,-37.598,0.000
1745527223.107,0.000,-33.203,-30.762,-32.715,0.000
1745527223.111,0.000,-30.273,-27.344,-33.203,0.000
1745527223.115,0.000,-29.785,-38.086,-32.227,0.000
1745527223.119,0.000,-23.926,-38.574,-30.762,0.000
1745527223.123,0.000,-30.273,-35.156,-35.645,0.000
1745527223.127,0.000,-42.480,-35.645,-35.156,0.000
1745527223.131,0.000,-38.574,-38.574,-34.180,0.000
1745527223.134,0.000,-36.621,-39.062,-34.668,0.000
1745527223.138,0.000,-38.574,-39.062,-38.086,0.000
1745527223.142,0.000,-36.621,-32.227,-34.668,0.000
1745527223.146,-31.250,-31.250,-35.156,-33.691,0.000
1745527223.150,-32.227,-27.344,-43.945,-35.156,0.000
1745527223.154,-43.457,-25.879,-37.598,-38.086,0.000
1745527223.158,-55.664,-26.367,-34.668,-32.227,0.000
1745527223.162,-41.992,-21.484,-35.645,-32.715,0.000
1745527223.166,-32.715,-22.461,-37.598,-41.992,0.000
1745527223.170,-25.879,-28.320,-32.715,-38.086,0.000
1745527223.174,-17.090,-26.855,-32.227,-28.320,0.000
1745527223.177,-17.090,-26.855,-33.691,-22.461,0.000
1745527223.181,-18.555,-29.785,-24.414,-22.461,0.000
1745527223.185,-20.508,-26.367,-31.738,-17.578,0.000
1745527223.189,-29.297,-29.297,-39.551,-18.555,0.000
1745527223.193,0.000,-29.785,-33.203,-21.484,0.000
1745527223.197,0.000,-24.414,-30.273,-16.602,0.000
1745527223.201,0.000,-29.297,-31.250,-24.902,0.000
1745527223.205,0.000,-35.645,-27.344,-36.621,0.000
