timestamps,TP9,AF7,AF8,TP10,Right AUX
1744693168.124,45.898,-10.254,-21.973,-9.766,0.000
1744693168.128,-41.992,-19.043,-23.926,-18.555,0.000
1744693168.132,-79.590,-29.297,-28.809,-30.273,0.000
1744693168.136,-2.930,-19.531,-25.879,-24.902,0.000
1744693168.140,42.480,-14.160,-22.949,-17.090,0.000
1744693168.144,-19.531,-21.484,-27.344,-17.578,0.000
1744693168.147,-80.078,-31.738,-35.156,-25.879,0.000
1744693168.151,-27.832,-30.762,-28.809,-31.250,0.000
1744693168.155,32.227,-20.020,-25.879,-32.715,0.000
1744693168.159,-8.789,-25.391,-28.809,-32.715,0.000
1744693168.163,-77.148,-33.203,-31.738,-24.414,0.000
1744693168.167,-44.922,-25.879,-30.273,-20.020,0.000
1744693168.171,44.922,-12.207,-25.391,-11.230,0.000
1744693168.175,34.668,-13.184,-28.809,-4.883,0.000
1744693168.179,-56.152,-25.391,-37.109,-21.484,0.000
1744693168.183,-66.895,-32.715,-41.504,-32.227,0.000
1744693168.186,21.973,-23.438,-35.645,-22.461,0.000
1744693168.190,49.316,-16.113,-34.180,-18.066,0.000
1744693168.194,-31.250,-22.461,-35.645,-20.508,0.000
1744693168.198,-70.801,-31.250,-36.621,-26.367,0.000
1744693168.202,2.930,-27.344,-31.250,-23.438,0.000
1744693168.206,43.945,-26.855,-28.809,-18.066,0.000
1744693168.210,-22.461,-34.668,-35.645,-26.855,0.000
1744693168.214,-84.473,-37.598,-43.457,-35.156,0.000
1744693168.218,-26.855,-34.180,-40.039,-28.320,0.000
1744693168.222,45.898,-26.367,-32.715,-21.484,0.000
1744693168.226,12.207,-19.531,-29.297,-20.996,0.000
1744693168.229,-66.895,-23.926,-33.203,-28.320,0.000
1744693168.233,-48.340,-23.438,-33.691,-30.273,0.000
1744693168.237,38.086,-10.254,-23.926,-21.484,0.000
1744693168.241,31.738,-3.418,-31.738,-20.996,0.000
1744693168.245,-56.641,-23.926,-36.133,-23.438,0.000
1744693168.249,-69.336,-33.691,-34.180,-23.438,0.000
1744693168.253,11.719,-19.043,-33.203,-15.625,0.000
1744693168.257,48.828,-6.348,-18.555,-3.418,0.000
1744693168.261,-20.508,-11.230,-19.043,-5.859,0.000
1744693168.265,-75.684,-27.344,-26.855,-19.531,0.000
1744693168.269,-9.766,-24.902,-26.855,-25.879,0.000
1744693168.272,40.039,-14.160,-26.855,-20.020,0.000
1744693168.276,-19.531,-26.855,-30.273,-20.508,0.000
1744693168.280,-83.496,-36.133,-26.367,-24.414,0.000
1744693168.284,-37.598,-20.996,-20.508,-26.367,0.000
1744693168.288,31.250,-20.020,-26.855,-31.250,0.000
1744693168.292,-0.977,-29.785,-34.668,-29.785,0.000
1744693168.296,-80.078,-37.598,-37.109,-26.855,0.000
1744693168.300,-59.082,-35.645,-34.180,-26.367,0.000
1744693168.304,20.996,-19.043,-30.273,-23.438,0.000
1744693168.308,19.531,-10.742,-28.809,-20.020,0.000
1744693168.311,0.000,-20.020,0.000,-27.344,0.000
1744693168.315,0.000,-19.531,0.000,-30.762,0.000
1744693168.319,0.000,-12.207,0.000,-28.809,0.000
1744693168.323,0.000,-10.254,0.000,-24.414,0.000
1744693168.327,0.000,-16.602,0.000,-24.902,0.000
1744693168.331,0.000,-25.391,0.000,-36.133,0.000
1744693168.335,0.000,-22.949,0.000,-35.645,0.000
1744693168.339,0.000,-21.973,0.000,-30.762,0.000
1744693168.343,0.000,-24.902,0.000,-30.762,0.000
1744693168.347,0.000,-31.738,0.000,-37.598,0.000
1744693168.351,0.000,-31.250,0.000,-37.598,0.000
1744693168.354,0.000,-25.879,0.000,-27.832,0.000
1744693168.358,-61.523,-24.902,-28.320,-29.785,0.000
1744693168.362,-83.008,-29.297,-32.227,-34.668,0.000
1744693168.366,-3.906,-29.785,-30.762,-30.273,0.000
1744693168.370,35.156,-20.996,-29.297,-27.832,0.000
1744693168.374,-33.203,-17.578,-27.344,-28.320,0.000
1744693168.378,-90.332,-21.484,-30.762,-27.344,0.000
1744693168.382,-28.809,-21.973,-35.156,-25.879,0.000
1744693168.386,32.227,-24.902,-35.156,-29.297,0.000
1744693168.390,-14.648,-25.391,-35.156,-27.344,0.000
1744693168.393,-87.891,-28.809,-36.133,-26.855,0.000
1744693168.397,-50.781,-34.180,-37.109,-35.645,0.000
1744693168.401,27.344,-34.668,-36.621,-35.156,0.000
1744693168.405,10.254,-28.320,-33.203,-28.809,0.000
1744693168.409,-75.684,-29.785,-30.762,-29.297,0.000
1744693168.413,-70.801,-35.156,-31.250,-31.250,0.000
1744693168.417,10.254,-29.785,-39.062,-33.691,0.000
1744693168.421,18.555,-13.184,-34.668,-23.438,0.000
1744693168.425,-56.641,-8.789,-29.785,-14.648,0.000
1744693168.429,-88.379,-23.438,-42.969,-20.020,0.000
1744693168.433,-20.020,-27.344,-44.922,-15.625,0.000
1744693168.436,22.461,-17.578,-29.785,-1.953,0.000
1744693168.440,-41.504,-24.414,-25.879,-17.578,0.000
1744693168.444,-106.445,-38.574,-27.344,-31.738,0.000
1744693168.448,-48.340,-41.016,-17.090,-24.414,0.000
1744693168.452,-15.137,-31.250,-13.184,-21.973,0.000
1744693168.456,37.109,-25.391,-20.996,-20.020,0.000
1744693168.460,-16.602,-25.879,-26.367,-20.020,0.000
1744693168.464,-81.543,-32.715,-28.320,-28.320,0.000
1744693168.468,-41.016,-40.039,-22.949,-29.297,0.000
1744693168.472,39.062,-22.949,-16.113,-19.531,0.000
1744693168.475,7.324,-14.160,-20.020,-20.996,0.000
1744693168.479,-84.961,-35.156,-27.832,-25.391,0.000
1744693168.483,-69.336,-44.434,-27.344,-26.367,0.000
1744693168.487,21.484,-31.738,-23.438,-20.508,0.000
1744693168.491,30.762,-21.484,-22.461,-11.230,0.000
1744693168.495,-51.758,-34.668,-25.879,-18.555,0.000
1744693168.499,-67.871,-40.527,-28.320,-25.879,0.000
1744693168.503,8.789,-30.762,-25.391,-22.461,0.000
1744693168.507,31.738,-21.973,-21.973,-21.973,0.000
1744693168.511,-49.316,-30.273,-27.832,-30.273,0.000
1744693168.515,-94.727,-41.504,-35.156,-34.180,0.000
1744693168.518,-22.461,-29.297,-31.738,-30.273,0.000
1744693168.522,30.762,-25.391,-30.273,-26.855,0.000
1744693168.526,-22.461,-33.691,-28.809,-24.414,0.000
1744693168.530,-88.379,-38.574,-29.297,-27.832,0.000
1744693168.534,-43.457,-37.109,-27.344,-24.902,0.000
1744693168.538,34.668,-32.227,-23.438,-17.578,0.000
1744693168.542,14.648,-23.926,-20.508,-11.230,0.000
1744693168.546,-72.266,-27.832,-24.902,-16.602,0.000
1744693168.550,-76.172,-43.945,-36.133,-27.832,0.000
1744693168.554,10.742,-35.645,-32.715,-19.531,0.000
1744693168.558,22.949,-25.879,-30.273,-16.113,0.000
1744693168.561,-55.176,-35.156,-36.133,-24.902,0.000
1744693168.565,-76.172,-36.133,-37.109,-30.762,0.000
1744693168.569,-5.859,-30.273,-31.250,-27.344,0.000
1744693168.573,27.832,-29.297,-28.809,-23.438,0.000
1744693168.577,-38.086,-31.738,-35.156,-24.414,0.000
1744693168.581,-89.844,-41.992,-36.133,-29.297,0.000
1744693168.585,-23.926,-41.016,-31.738,-28.809,0.000
1744693168.589,39.062,-29.785,-25.879,-25.391,0.000
1744693168.593,-5.859,-24.902,-25.391,-18.555,0.000
1744693168.597,-80.566,-34.180,-29.297,-18.066,0.000
1744693168.600,-46.387,-36.621,-30.273,-19.531,0.000
1744693168.604,37.109,-23.926,-24.902,-18.066,0.000
1744693168.608,13.672,-24.414,-27.832,-22.461,0.000
1744693168.612,-74.219,-34.180,-38.574,-29.785,0.000
1744693168.616,-71.777,-39.062,-39.062,-34.180,0.000
1744693168.620,19.043,-32.227,-33.691,-31.250,0.000
1744693168.624,33.203,-26.855,-27.832,-20.508,0.000
1744693168.628,-53.223,-30.762,-28.320,-16.602,0.000
1744693168.632,-86.426,-30.762,-34.668,-27.344,0.000
1744693168.636,-7.324,-18.066,-30.273,-23.926,0.000
1744693168.640,34.180,-13.672,-21.973,-17.578,0.000
1744693168.643,-38.086,-26.367,-29.785,-24.902,0.000
1744693168.647,-90.820,-31.738,-38.086,-28.809,0.000
1744693168.651,-29.785,-26.367,-32.227,-25.879,0.000
1744693168.655,35.156,-19.043,-27.832,-22.461,0.000
1744693168.659,-6.836,-15.625,-29.785,-28.320,0.000
1744693168.663,-87.891,-24.414,-38.574,-37.109,0.000
1744693168.667,-53.711,-26.367,-38.086,-31.738,0.000
1744693168.671,26.367,-20.020,-30.762,-28.809,0.000
1744693168.675,1.953,-21.973,-35.156,-36.133,0.000
1744693168.679,-87.402,-31.738,-37.598,-39.551,0.000
1744693168.683,-81.055,-33.203,-35.645,-31.738,0.000
1744693168.686,12.695,-32.715,0.000,-20.020,0.000
1744693168.690,32.715,-30.762,0.000,-15.137,0.000
1744693168.694,-41.016,-29.297,0.000,-12.695,0.000
1744693168.698,-83.496,-35.156,0.000,-21.973,0.000
1744693168.702,-16.113,-32.715,0.000,-31.738,0.000
1744693168.706,38.086,-20.996,0.000,-27.344,0.000
1744693168.710,-22.949,-23.438,0.000,-26.367,0.000
1744693168.714,-87.891,-36.133,0.000,-28.320,0.000
1744693168.718,-32.715,-34.668,0.000,-23.926,0.000
1744693168.722,37.598,-24.414,0.000,-17.578,0.000
1744693168.725,-1.465,-30.273,0.000,-18.066,0.000
1744693168.729,-87.891,-41.016,0.000,-28.809,0.000
1744693168.733,-70.801,-33.203,-44.922,-31.738,0.000
1744693168.737,15.625,-21.484,-43.457,-25.391,0.000
1744693168.741,20.996,-19.531,-36.133,-19.043,0.000
1744693168.745,-67.871,-27.344,-41.016,-24.414,0.000
1744693168.749,-89.355,-35.156,-44.434,-34.668,0.000
1744693168.753,3.906,-18.066,-29.785,-31.738,0.000
1744693168.757,39.062,-4.883,-28.320,-26.855,0.000
1744693168.761,-41.016,-15.625,-40.527,-29.297,0.000
1744693168.765,-87.891,-23.926,-45.410,-39.062,0.000
1744693168.768,-17.578,-21.484,-44.434,-43.457,0.000
1744693168.772,38.086,-15.137,-40.527,-33.691,0.000
1744693168.776,-15.625,-19.043,-39.551,-34.668,0.000
1744693168.780,-83.984,-25.879,-40.039,-36.133,0.000
1744693168.784,-34.668,-24.902,-30.762,-26.855,0.000
1744693168.788,41.016,-23.438,-26.855,-23.438,0.000
1744693168.792,5.371,-24.414,-29.785,-24.902,0.000
1744693168.796,-82.520,-30.762,-33.203,-30.273,0.000
1744693168.800,-61.035,-25.391,-31.738,-33.203,0.000
1744693168.804,29.785,-13.672,-30.273,-22.949,0.000
1744693168.807,31.250,-22.949,-30.273,-13.184,0.000
1744693168.811,-52.246,-30.762,-30.762,-15.625,0.000
1744693168.815,-69.336,-29.297,-35.156,-17.578,0.000
1744693168.819,13.672,-21.484,-32.715,-14.160,0.000
1744693168.823,42.480,-16.602,-29.297,-13.184,0.000
1744693168.827,-36.621,-30.762,-36.621,-22.949,0.000
1744693168.831,-89.355,-37.109,-39.551,-27.832,0.000
1744693168.835,-11.230,-22.461,-32.227,-17.090,0.000
1744693168.839,51.270,-12.207,-30.762,-15.137,0.000
1744693168.843,-11.719,-22.949,-34.180,-21.973,0.000
1744693168.847,-87.891,-28.320,-33.203,-30.273,0.000
1744693168.850,-47.363,-20.508,-34.180,-33.203,0.000
1744693168.854,21.484,-26.855,-41.992,-36.133,0.000
1744693168.858,-4.395,-31.250,-45.898,-39.551,0.000
1744693168.862,-86.914,-35.645,-46.875,-39.551,0.000
1744693168.866,-78.613,-33.691,-43.945,-38.086,0.000
1744693168.870,15.625,-20.996,-34.180,-27.344,0.000
1744693168.874,0.000,-22.461,-30.762,-23.438,0.000
1744693168.878,0.000,-31.738,-38.574,-31.738,0.000
1744693168.882,0.000,-42.480,-44.922,-37.109,0.000
1744693168.886,0.000,-37.109,-42.480,-30.762,0.000
1744693168.890,0.000,-25.879,-41.016,-20.996,0.000
1744693168.893,0.000,-26.367,-43.457,-25.879,0.000
1744693168.897,0.000,-28.320,-41.992,-30.273,0.000
1744693168.901,0.000,-24.902,-34.668,-20.996,0.000
1744693168.905,0.000,-14.648,-30.762,-11.230,0.000
1744693168.909,0.000,-18.555,-33.203,-13.184,0.000
1744693168.913,0.000,-31.250,-39.551,-21.973,0.000
1744693168.917,0.000,-29.297,-41.016,-21.484,0.000
1744693168.921,36.133,-18.066,-38.574,-20.996,0.000
1744693168.925,17.090,-15.625,-38.574,-20.996,0.000
1744693168.929,-72.266,-28.320,-40.039,-20.996,0.000
1744693168.932,-70.801,-30.762,-33.691,-17.090,0.000
1744693168.936,19.043,-21.484,-27.832,-16.113,0.000
1744693168.940,40.039,-19.531,-28.320,-16.113,0.000
1744693168.944,-38.574,-26.367,-37.109,-17.578,0.000
1744693168.948,-74.707,-31.738,-41.992,-21.973,0.000
1744693168.952,6.348,-23.926,-33.203,-12.695,0.000
1744693168.956,52.246,-15.137,-21.484,-9.277,0.000
1744693168.960,-13.672,-21.973,-20.508,-15.625,0.000
1744693168.964,-63.965,-29.785,-22.949,-19.043,0.000
1744693168.968,0.000,-20.020,0.000,-15.625,0.000
1744693168.972,0.000,-18.066,0.000,-19.531,0.000
1744693168.975,0.000,-27.832,0.000,-21.484,0.000
1744693168.979,0.000,-37.109,0.000,-23.926,0.000
1744693168.983,0.000,-36.133,0.000,-26.367,0.000
1744693168.987,0.000,-25.391,0.000,-19.531,0.000
1744693168.991,0.000,-19.531,0.000,-20.508,0.000
1744693168.995,0.000,-30.273,0.000,-29.297,0.000
1744693168.999,0.000,-41.992,0.000,-32.227,0.000
1744693169.003,0.000,-36.133,0.000,-28.809,0.000
1744693169.007,0.000,-24.414,0.000,-14.648,0.000
1744693169.011,0.000,-24.414,0.000,-8.301,0.000
1744693169.015,-89.355,-34.180,-35.645,-14.160,0.000
1744693169.018,-17.090,-27.344,-31.250,-14.160,0.000
1744693169.022,35.156,-20.020,-27.344,-17.578,0.000
1744693169.026,-23.438,-26.367,-24.414,-17.578,0.000
1744693169.030,-86.914,-28.320,-25.391,-18.555,0.000
1744693169.034,-36.621,-20.996,-31.738,-20.508,0.000
1744693169.038,41.504,-13.672,-29.297,-19.043,0.000
1744693169.042,6.348,-28.809,-32.715,-25.391,0.000
1744693169.046,-79.102,-40.039,-41.016,-31.250,0.000
1744693169.050,-54.688,-35.156,-33.691,-30.762,0.000
1744693169.054,28.809,-31.738,-25.391,-24.414,0.000
1744693169.057,31.250,-23.926,-22.461,-16.602,0.000
1744693169.061,0.000,-26.367,-20.996,-18.066,0.000
1744693169.065,0.000,-24.902,-25.879,-19.043,0.000
1744693169.069,0.000,-20.020,-26.855,-20.020,0.000
1744693169.073,0.000,-21.484,-24.414,-21.973,0.000
1744693169.077,0.000,-30.273,-29.785,-27.344,0.000
1744693169.081,0.000,-35.156,-36.621,-37.598,0.000
1744693169.085,0.000,-26.367,-35.645,-31.250,0.000
1744693169.089,0.000,-24.902,-33.691,-23.926,0.000
1744693169.093,0.000,-30.273,-25.879,-21.973,0.000
1744693169.097,0.000,-34.668,-25.391,-21.484,0.000
1744693169.100,0.000,-32.715,-26.855,-18.555,0.000
1744693169.104,0.000,-24.414,-22.461,-19.043,0.000
1744693169.108,6.348,-29.785,-26.367,-19.531,0.000
1744693169.112,-74.707,-33.203,-22.949,-23.926,0.000
1744693169.116,-65.430,-26.855,-24.902,-28.809,0.000
1744693169.120,6.836,-27.344,-33.203,-27.344,0.000
1744693169.124,13.672,-33.203,-25.391,-26.367,0.000
1744693169.128,-60.547,-37.598,-24.902,-30.273,0.000
1744693169.132,-83.496,-39.551,-25.879,-31.250,0.000
1744693169.136,-10.254,-38.574,-26.367,-31.738,0.000
1744693169.139,38.574,-25.879,-22.949,-25.879,0.000
1744693169.143,-24.902,-31.738,-24.902,-25.391,0.000
1744693169.147,-93.262,-45.898,-31.250,-38.574,0.000
1744693169.151,-36.621,-34.180,-32.227,-37.598,0.000
1744693169.155,38.086,-18.066,-20.996,-20.020,0.000
1744693169.159,6.836,-17.578,-15.625,-12.695,0.000
1744693169.163,-81.055,-29.297,-32.715,-29.785,0.000
1744693169.167,-60.059,-35.156,-37.598,-38.574,0.000
1744693169.171,26.855,-27.344,-29.297,-30.273,0.000
1744693169.175,8.789,-26.855,-29.785,-25.879,0.000
1744693169.179,-80.078,-37.598,-35.645,-36.133,0.000
1744693169.182,-78.125,-42.480,-34.668,-39.062,0.000
1744693169.186,11.230,-31.738,-31.738,-30.273,0.000
1744693169.190,26.367,-26.367,-36.133,-25.391,0.000
1744693169.194,-53.223,-35.645,-37.109,-28.320,0.000
1744693169.198,-83.984,-41.504,-30.762,-35.156,0.000
1744693169.202,-2.441,-29.785,-22.949,-32.227,0.000
1744693169.206,39.062,-16.602,-15.137,-20.020,0.000
1744693169.210,-36.133,-24.414,-17.090,-20.996,0.000
1744693169.214,-101.074,-33.203,-27.344,-36.133,0.000
1744693169.218,-42.969,-26.367,-28.320,-32.227,0.000
1744693169.222,27.344,-15.137,-22.949,-20.996,0.000
1744693169.225,-13.184,-17.090,-29.297,-18.555,0.000
1744693169.229,-92.773,-35.645,-35.645,-24.414,0.000
1744693169.233,-61.035,-31.250,-31.250,-23.926,0.000
1744693169.237,23.926,-14.160,-29.785,-21.973,0.000
1744693169.241,16.602,-16.602,-27.832,-24.902,0.000
1744693169.245,-67.383,-27.832,-28.809,-31.738,0.000
1744693169.249,-68.848,-30.273,-30.273,-34.180,0.000
1744693169.253,13.184,-21.484,-26.367,-22.949,0.000
1744693169.257,27.832,-22.461,-29.297,-17.578,0.000
1744693169.261,-46.875,-34.180,-32.715,-22.461,0.000
1744693169.264,-92.773,-40.527,-36.621,-32.715,0.000
1744693169.268,-26.855,-32.715,-33.203,-33.691,0.000
1744693169.272,32.715,-20.020,-26.855,-24.902,0.000
1744693169.276,-19.531,-25.391,-26.855,-19.043,0.000
1744693169.280,-90.332,-44.434,-33.203,-26.367,0.000
1744693169.284,-32.715,-41.016,-34.180,-26.367,0.000
1744693169.288,44.434,-25.391,-28.809,-13.672,0.000
1744693169.292,8.789,-24.414,-26.367,-13.672,0.000
1744693169.296,-77.637,-34.180,-31.738,-20.996,0.000
1744693169.300,-62.012,-38.086,-39.062,-28.809,0.000
1744693169.304,29.297,-29.785,-33.691,-22.461,0.000
1744693169.307,29.785,-25.391,-30.762,-13.184,0.000
1744693169.311,-56.641,-29.785,-31.738,-23.438,0.000
1744693169.315,-69.824,-30.273,-31.738,-26.367,0.000
1744693169.319,16.113,-20.508,-35.645,-18.066,0.000
1744693169.323,40.527,-20.020,-38.086,-18.555,0.000
1744693169.327,-36.621,-29.297,-33.203,-16.602,0.000
1744693169.331,-84.473,-27.832,-35.156,-22.949,0.000
1744693169.335,-19.043,-16.113,-39.062,-24.414,0.000
1744693169.339,35.156,-11.719,-35.645,-21.484,0.000
1744693169.343,0.000,-22.461,-34.180,-29.785,0.000
1744693169.347,0.000,-35.156,-33.691,-40.039,0.000
1744693169.350,0.000,-29.785,-35.156,-39.551,0.000
1744693169.354,0.000,-21.973,-29.785,-24.414,0.000
1744693169.358,0.000,-26.367,-26.855,-20.996,0.000
1744693169.362,0.000,-27.832,-29.297,-28.809,0.000
1744693169.366,0.000,-26.855,-34.180,-28.320,0.000
1744693169.370,0.000,-23.926,-31.738,-19.043,0.000
1744693169.374,0.000,-20.996,-23.926,-14.648,0.000
1744693169.378,0.000,-28.809,-23.438,-13.672,0.000
1744693169.382,0.000,-32.227,-24.902,-18.555,0.000
1744693169.386,0.000,-29.297,-27.344,-22.949,0.000
1744693169.390,30.762,-29.297,-26.367,-20.996,0.000
1744693169.393,-33.203,-35.645,-27.832,-25.879,0.000
1744693169.397,-83.008,-40.039,-32.715,-31.250,0.000
1744693169.401,-19.043,-29.785,-27.344,-24.414,0.000
1744693169.405,41.504,-25.879,-31.738,-23.438,0.000
1744693169.409,-6.836,-33.691,-37.109,-24.902,0.000
1744693169.413,-71.777,-31.250,-29.297,-19.531,0.000
1744693169.417,-30.762,-28.809,-28.809,-17.090,0.000
1744693169.421,34.180,-29.785,-33.691,-20.996,0.000
1744693169.425,9.277,-30.273,-33.203,-19.531,0.000
1744693169.429,-67.383,-36.621,-33.691,-16.602,0.000
1744693169.432,-66.895,-37.598,-33.691,-18.066,0.000
1744693169.436,11.719,-30.273,-30.762,-20.996,0.000
1744693169.440,28.809,-25.879,-32.715,-22.949,0.000
1744693169.444,-43.945,-25.879,-35.645,-20.508,0.000
1744693169.448,-68.848,-30.762,-32.715,-21.484,0.000
1744693169.452,2.441,-35.156,-31.738,-21.484,0.000
1744693169.456,42.480,-21.484,-25.879,-18.066,0.000
1744693169.460,-18.066,-18.066,-27.832,-20.996,0.000
1744693169.464,-87.402,-41.992,-42.969,-31.738,0.000
1744693169.468,-29.785,-41.992,-40.527,-27.832,0.000
1744693169.472,44.434,-26.367,-29.785,-15.625,0.000
1744693169.475,0.000,-30.273,-26.367,-18.066,0.000
1744693169.479,-93.262,-43.457,-31.738,-37.109,0.000
1744693169.483,0.000,-40.527,-33.203,-41.504,0.000
1744693169.487,0.000,-21.973,-27.832,-26.367,0.000
1744693169.491,0.000,-18.555,-26.367,-19.043,0.000
1744693169.495,0.000,-33.203,-34.668,-25.391,0.000
1744693169.499,0.000,-34.668,-40.039,-32.227,0.000
1744693169.503,0.000,-16.113,-32.227,-24.414,0.000
1744693169.507,0.000,-13.672,-24.902,-15.137,0.000
1744693169.511,0.000,-32.227,-29.297,-22.461,0.000
1744693169.514,0.000,-41.016,-42.969,-33.691,0.000
1744693169.518,0.000,-32.227,-41.992,-32.227,0.000
1744693169.522,0.000,-19.043,-38.086,-25.879,0.000
1744693169.526,0.000,-21.484,-38.574,-22.949,0.000
1744693169.530,-88.867,-36.133,-43.945,-28.320,0.000
1744693169.534,-41.504,-38.086,-44.922,-31.250,0.000
1744693169.538,35.156,-26.367,-35.645,-19.043,0.000
1744693169.542,5.371,-25.391,-33.691,-18.066,0.000
1744693169.546,-78.613,-34.668,-36.621,-26.855,0.000
1744693169.550,-58.594,-30.273,-41.992,-25.879,0.000
1744693169.554,26.367,-20.996,-39.062,-19.531,0.000
1744693169.557,18.066,-23.926,-34.180,-17.090,0.000
1744693169.561,-66.406,-35.645,-41.992,-20.996,0.000
1744693169.565,-68.359,-36.133,-43.457,-22.949,0.000
1744693169.569,17.090,-20.508,-40.527,-18.555,0.000
1744693169.573,33.691,-19.531,-40.527,-20.508,0.000
1744693169.577,-44.434,-28.809,-35.645,-23.438,0.000
1744693169.581,-93.750,-32.715,-32.227,-29.297,0.000
1744693169.585,-23.926,-27.344,-28.320,-28.809,0.000
1744693169.589,42.969,-19.531,-23.438,-16.602,0.000
1744693169.593,-10.254,-31.250,-25.391,-19.043,0.000
1744693169.597,-90.820,-43.457,-35.156,-31.738,0.000
1744693169.600,-47.363,-41.992,-35.645,-28.809,0.000
1744693169.604,27.832,-37.109,-29.297,-25.879,0.000
1744693169.608,0.000,-33.691,-29.785,-20.508,0.000
1744693169.612,-79.102,-35.645,-34.180,-23.438,0.000
1744693169.616,-67.871,-35.645,-35.156,-36.621,0.000
1744693169.620,18.066,-30.762,-36.621,-31.250,0.000
1744693169.624,0.000,-25.391,-32.227,-21.973,0.000
1744693169.628,0.000,-21.973,-24.414,-15.625,0.000
1744693169.632,0.000,-30.273,-27.832,-20.508,0.000
1744693169.636,0.000,-35.156,-27.832,-28.320,0.000
1744693169.639,0.000,-28.320,-24.414,-23.926,0.000
1744693169.643,0.000,-25.391,-29.785,-22.461,0.000
1744693169.647,0.000,-23.438,-26.367,-26.367,0.000
1744693169.651,0.000,-23.438,-25.391,-23.438,0.000
1744693169.655,0.000,-22.949,-25.391,-24.414,0.000
1744693169.659,0.000,-23.438,-24.902,-28.320,0.000
1744693169.663,0.000,-34.180,-28.320,-27.344,0.000
1744693169.667,0.000,-34.180,-27.344,-20.508,0.000
1744693169.671,41.016,-12.695,0.000,0.000,0.000
1744693169.675,15.137,-13.184,0.000,0.000,0.000
1744693169.679,-77.148,-31.738,0.000,0.000,0.000
1744693169.682,-61.035,-28.320,0.000,0.000,0.000
1744693169.686,27.832,-20.508,0.000,0.000,0.000
1744693169.690,34.180,-14.160,0.000,0.000,0.000
1744693169.694,-49.805,-17.578,0.000,0.000,0.000
1744693169.698,-94.238,-33.691,0.000,0.000,0.000
1744693169.702,-17.090,-30.762,0.000,0.000,0.000
1744693169.706,28.809,-27.344,0.000,0.000,0.000
1744693169.710,-38.574,-33.203,0.000,0.000,0.000
1744693169.714,-99.121,-36.133,0.000,0.000,0.000
1744693169.718,-37.109,-26.367,-33.203,-29.297,0.000
1744693169.721,29.785,-17.578,-27.832,-24.414,0.000
1744693169.725,-25.879,-20.996,-34.180,-33.203,0.000
1744693169.729,-103.516,-27.832,-37.598,-38.574,0.000
1744693169.733,-66.406,-29.297,-39.551,-41.016,0.000
1744693169.737,26.367,-15.625,-34.668,-35.156,0.000
1744693169.741,14.648,-12.695,-31.738,-30.273,0.000
1744693169.745,-83.008,-32.227,-40.527,-37.598,0.000
1744693169.749,-87.402,-37.109,-48.340,-39.551,0.000
1744693169.753,0.977,-24.414,-40.527,-31.738,0.000
1744693169.757,11.230,-24.902,-33.203,-31.738,0.000
1744693169.761,-67.383,-36.133,-28.320,-27.344,0.000
1744693169.764,0.000,-38.086,-21.973,-21.973,0.000
1744693169.768,0.000,-31.738,-24.414,-17.090,0.000
1744693169.772,0.000,-24.414,-20.020,-12.695,0.000
1744693169.776,0.000,-22.461,-16.602,-21.484,0.000
1744693169.780,0.000,-28.809,-20.996,-23.926,0.000
1744693169.784,0.000,-22.461,-21.973,-20.020,0.000
1744693169.788,0.000,-8.301,-22.461,-18.066,0.000
1744693169.792,0.000,-18.555,-28.320,-15.137,0.000
1744693169.796,0.000,-43.945,-38.574,-23.926,0.000
1744693169.800,0.000,-34.180,-34.668,-22.461,0.000
1744693169.804,0.000,-13.184,-25.879,-12.695,0.000
1744693169.807,0.000,-17.090,-30.273,-19.043,0.000
1744693169.811,-63.477,-25.879,0.000,-24.902,0.000
1744693169.815,-72.266,-28.320,0.000,-22.949,0.000
1744693169.819,9.766,-13.184,0.000,-15.137,0.000
1744693169.823,43.945,-4.395,0.000,-8.789,0.000
1744693169.827,-34.180,-21.484,0.000,-17.578,0.000
1744693169.831,-78.613,-25.879,0.000,-27.832,0.000
1744693169.835,-8.301,-18.555,0.000,-31.250,0.000
1744693169.839,40.527,-19.043,0.000,-27.344,0.000
1744693169.843,-13.184,-19.531,0.000,-25.391,0.000
1744693169.846,-85.938,-28.320,0.000,-33.691,0.000
1744693169.850,-44.434,-27.344,0.000,-33.691,0.000
1744693169.854,32.227,-20.020,0.000,-28.809,0.000
1744693169.858,-1.953,-30.762,-30.273,-28.320,0.000
1744693169.862,-80.566,-37.598,-33.691,-30.762,0.000
1744693169.866,-64.453,-33.691,-33.203,-31.250,0.000
1744693169.870,11.719,-27.344,-29.297,-27.832,0.000
1744693169.874,14.648,-24.902,-25.391,-25.879,0.000
1744693169.878,-68.848,-29.297,-27.832,-29.297,0.000
1744693169.882,-87.891,-29.785,-34.180,-33.203,0.000
1744693169.886,-7.324,-32.715,-31.738,-32.715,0.000
1744693169.889,20.020,-37.598,-29.785,-29.297,0.000
1744693169.893,-53.223,-42.480,-30.273,-29.297,0.000
1744693169.897,-91.797,-37.598,-24.414,-34.668,0.000
1744693169.901,-24.414,-20.996,-23.438,-41.504,0.000
1744693169.905,34.180,-17.578,-28.320,-36.621,0.000
1744693169.909,-14.160,-28.320,-32.227,-29.785,0.000
1744693169.913,-90.820,-32.227,-32.715,-34.180,0.000
1744693169.917,-58.105,-27.344,-28.320,-37.109,0.000
1744693169.921,13.672,-26.367,-26.855,-31.738,0.000
1744693169.925,-0.977,-23.926,-25.391,-26.367,0.000
1744693169.929,-81.055,-30.762,-35.645,-32.227,0.000
1744693169.932,-76.172,-37.598,-44.434,-38.086,0.000
1744693169.936,11.230,-27.832,-34.668,-32.715,0.000
1744693169.940,20.508,-23.438,-32.227,-29.297,0.000
1744693169.944,-61.035,-34.668,-36.133,-32.715,0.000
1744693169.948,-85.449,-35.645,-33.203,-32.715,0.000
1744693169.952,-3.906,-21.484,0.000,-29.785,0.000
1744693169.956,34.668,-18.555,0.000,-24.414,0.000
1744693169.960,-32.227,-26.855,0.000,-21.484,0.000
1744693169.964,-88.867,-27.832,0.000,-22.461,0.000
1744693169.968,-27.832,-20.996,0.000,-19.043,0.000
1744693169.971,44.434,-11.230,0.000,-11.230,0.000
1744693169.975,-3.418,-17.578,0.000,-10.742,0.000
1744693169.979,-82.031,-38.086,0.000,-16.602,0.000
1744693169.983,-43.945,-40.039,0.000,-20.508,0.000
1744693169.987,39.062,-23.926,0.000,-17.090,0.000
1744693169.991,31.250,-19.531,0.000,-13.672,0.000
1744693169.995,-47.852,-35.156,0.000,-22.949,0.000
1744693169.999,-55.176,-35.156,-24.902,-30.273,0.000
1744693170.003,24.902,-23.926,-23.438,-23.926,0.000
1744693170.007,38.574,-23.926,-29.785,-20.020,0.000
1744693170.011,-35.156,-27.344,-27.832,-27.344,0.000
1744693170.014,-64.941,-29.785,-29.297,-33.203,0.000
1744693170.018,16.602,-19.531,-29.297,-19.043,0.000
1744693170.022,62.988,-12.207,-24.414,-4.395,0.000
1744693170.026,-8.789,-25.391,-29.297,-15.137,0.000
1744693170.030,-74.219,-34.180,-35.156,-30.273,0.000
1744693170.034,-24.902,-32.715,-33.203,-30.762,0.000
1744693170.038,43.457,-21.973,-27.344,-27.344,0.000
1744693170.042,1.465,-24.902,-23.438,-32.715,0.000
1744693170.046,-81.543,-37.109,-33.203,-37.598,0.000
1744693170.050,-59.570,-32.227,-38.086,-38.086,0.000
1744693170.053,17.578,-16.113,-29.785,-31.738,0.000
1744693170.057,11.719,-15.625,-29.297,-25.879,0.000
1744693170.061,-72.754,-30.273,-31.738,-31.250,0.000
1744693170.065,-82.520,-27.832,-29.785,-33.691,0.000
1744693170.069,-0.488,-13.672,-23.926,-28.320,0.000
1744693170.073,20.508,-19.043,-23.926,-21.484,0.000
1744693170.077,-62.012,-37.109,-26.367,-29.785,0.000
1744693170.081,-104.980,-37.598,-25.879,-34.180,0.000
1744693170.085,-29.785,-28.320,-23.438,-27.344,0.000
1744693170.089,24.414,-20.996,-18.555,-29.297,0.000
1744693170.093,0.000,-24.902,-18.066,-32.715,0.000
1744693170.096,0.000,-36.621,-24.414,-38.574,0.000
1744693170.100,0.000,-30.273,-26.855,-34.180,0.000
1744693170.104,0.000,-20.996,-24.902,-23.926,0.000
1744693170.108,0.000,-21.973,-25.391,-27.832,0.000
1744693170.112,0.000,-26.367,-24.902,-32.715,0.000
1744693170.116,0.000,-34.180,-32.227,-34.668,0.000
1744693170.120,0.000,-28.320,-32.227,-32.227,0.000
1744693170.124,0.000,-23.438,-27.832,-26.855,0.000
1744693170.128,0.000,-34.180,-32.715,-30.273,0.000
1744693170.132,0.000,-40.039,-33.691,-39.551,0.000
1744693170.136,0.000,-33.691,-34.180,-40.039,0.000
1744693170.139,35.645,-24.902,-29.297,-33.691,0.000
1744693170.143,-36.133,-27.344,-26.855,-29.785,0.000
1744693170.147,-86.426,-34.180,-29.297,-30.273,0.000
1744693170.151,-18.066,-27.832,-25.391,-25.879,0.000
1744693170.155,38.086,-19.043,-24.414,-20.508,0.000
1744693170.159,-20.020,-15.625,-23.438,-16.602,0.000
1744693170.163,-86.914,-19.043,-23.926,-15.625,0.000
1744693170.167,-40.527,-20.996,-26.367,-17.090,0.000
1744693170.171,36.133,-18.066,-24.414,-14.160,0.000
1744693170.175,17.090,-17.090,-21.973,-10.742,0.000
1744693170.178,-66.406,-26.367,-29.297,-12.207,0.000
1744693170.182,-61.035,-25.879,-29.297,-13.672,0.000
1744693170.186,0.000,-10.254,0.000,-12.695,0.000
1744693170.190,0.000,-13.184,0.000,-8.789,0.000
1744693170.194,0.000,-22.949,0.000,-12.695,0.000
1744693170.198,0.000,-31.738,0.000,-20.996,0.000
1744693170.202,0.000,-21.484,0.000,-14.648,0.000
1744693170.206,0.000,-11.719,0.000,-14.648,0.000
1744693170.210,0.000,-20.020,0.000,-22.461,0.000
1744693170.214,0.000,-33.203,0.000,-29.785,0.000
1744693170.218,0.000,-32.227,0.000,-28.809,0.000
1744693170.221,0.000,-20.996,0.000,-28.320,0.000
1744693170.225,0.000,-35.156,0.000,-39.551,0.000
1744693170.229,0.000,-48.340,0.000,-49.316,0.000
1744693170.233,-68.359,-34.668,-35.645,-47.852,0.000
1744693170.237,23.438,-23.926,-33.203,-38.086,0.000
1744693170.241,6.836,-24.414,-37.598,-36.133,0.000
1744693170.245,-83.496,-39.062,-40.039,-43.945,0.000
1744693170.249,-77.148,-42.480,-40.527,-47.852,0.000
1744693170.253,5.371,-25.879,-39.551,-38.086,0.000
1744693170.257,17.090,-20.996,-34.668,-27.832,0.000
1744693170.261,-59.570,-33.691,-35.156,-31.250,0.000
1744693170.264,-93.262,-38.574,-40.039,-26.855,0.000
1744693170.268,-18.066,-35.156,-33.203,-20.508,0.000
1744693170.272,40.039,-21.484,-21.973,-12.207,0.000
1744693170.276,-23.438,-27.832,-33.203,-20.508,0.000
1744693170.280,-95.215,-44.922,-42.969,-34.668,0.000
1744693170.284,-36.621,-35.156,-39.062,-26.367,0.000
1744693170.288,27.832,-21.484,-34.668,-20.508,0.000
1744693170.292,-14.160,-21.484,-31.738,-20.020,0.000
1744693170.296,-86.426,-23.438,-32.715,-23.926,0.000
1744693170.300,-58.105,-18.066,-31.738,-26.367,0.000
1744693170.303,27.832,-9.766,-29.297,-17.090,0.000
1744693170.307,20.020,-13.672,-27.344,-11.230,0.000
1744693170.311,-75.195,-32.227,-25.879,-23.926,0.000
1744693170.315,-87.891,-36.621,-34.180,-37.598,0.000
1744693170.319,2.441,-19.531,-30.762,-25.879,0.000
1744693170.323,35.156,-11.719,-21.484,-11.719,0.000
1744693170.327,0.000,-28.809,-31.738,-22.949,0.000
1744693170.331,0.000,-41.992,-41.992,-32.227,0.000
1744693170.335,0.000,-37.598,-38.574,-23.926,0.000
1744693170.339,0.000,-29.297,-35.645,-16.113,0.000
1744693170.343,0.000,-31.250,-33.691,-15.625,0.000
1744693170.346,0.000,-34.180,-32.227,-20.996,0.000
1744693170.350,0.000,-28.809,-33.691,-24.414,0.000
1744693170.354,0.000,-22.949,-35.156,-17.578,0.000
1744693170.358,0.000,-28.320,-30.273,-14.160,0.000
1744693170.362,0.000,-44.434,-30.762,-20.996,0.000
1744693170.366,0.000,-46.387,-38.086,-28.809,0.000
1744693170.370,0.000,-32.227,-36.133,-26.367,0.000
1744693170.374,17.090,-27.832,-31.250,-20.020,0.000
1744693170.378,-62.500,-28.320,-30.273,-20.508,0.000
1744693170.382,-76.172,-25.879,-31.250,-23.438,0.000
1744693170.385,-5.371,-30.273,-30.273,-23.926,0.000
1744693170.389,20.996,-29.785,-26.367,-20.020,0.000
1744693170.393,-44.922,-32.227,-26.855,-19.043,0.000
1744693170.397,-86.426,-25.879,-29.785,-19.043,0.000
1744693170.401,-16.113,-17.578,-24.902,-13.184,0.000
1744693170.405,37.598,-24.414,-24.414,-16.602,0.000
1744693170.409,-16.602,-27.832,-31.738,-22.461,0.000
1744693170.413,-91.309,-28.320,-33.203,-24.902,0.000
1744693170.417,-58.105,-32.715,-32.227,-28.320,0.000
1744693170.421,16.602,-30.273,-33.203,-31.738,0.000
1744693170.425,-6.348,-35.156,-32.715,-34.668,0.000
1744693170.428,-82.031,-36.133,-27.344,-33.691,0.000
1744693170.432,-66.895,-34.180,-23.438,-31.738,0.000
1744693170.436,16.602,-26.855,-25.391,-28.809,0.000
1744693170.440,26.855,-14.648,-24.902,-25.391,0.000
1744693170.444,-62.988,-25.879,-34.180,-31.250,0.000
1744693170.448,-88.867,-36.621,-41.504,-33.203,0.000
1744693170.452,-4.883,-31.738,-38.086,-30.273,0.000
1744693170.456,28.809,-32.227,-31.738,-28.809,0.000
1744693170.460,-33.203,-29.785,-26.855,-24.414,0.000
1744693170.464,-76.172,-31.738,-29.297,-22.461,0.000
1744693170.468,-7.812,-27.832,-25.879,-16.602,0.000
1744693170.471,53.223,-15.625,-19.531,-15.625,0.000
1744693170.475,-4.395,-23.926,-26.855,-22.461,0.000
1744693170.479,-81.543,-37.598,-33.203,-26.367,0.000
1744693170.483,-47.852,-30.273,-30.273,-27.832,0.000
1744693170.487,35.645,-12.695,-25.879,-24.414,0.000
1744693170.491,19.531,-18.066,-27.832,-20.996,0.000
1744693170.495,-72.754,-33.203,-34.668,-29.297,0.000
1744693170.499,-70.312,-35.645,-35.645,-33.203,0.000
1744693170.503,16.602,-28.809,-31.250,-25.391,0.000
1744693170.507,30.273,-19.043,-26.855,-23.438,0.000
1744693170.510,-51.270,-26.367,-28.809,-29.785,0.000
1744693170.514,-78.613,-33.203,-27.832,-28.320,0.000
1744693170.518,-3.418,-26.855,-26.367,-23.926,0.000
1744693170.522,34.668,-19.043,-27.832,-26.855,0.000
1744693170.526,-30.762,-22.461,-33.203,-25.879,0.000
1744693170.530,-88.379,-33.203,-35.156,-20.508,0.000
1744693170.534,-29.297,-32.715,-32.227,-24.414,0.000
1744693170.538,35.645,-24.414,-29.297,-26.367,0.000
1744693170.542,-5.371,-24.414,-30.762,-24.902,0.000
1744693170.546,-83.496,-36.133,-35.156,-30.273,0.000
1744693170.550,-55.664,-38.086,-32.715,-31.738,0.000
1744693170.553,25.879,-24.902,-28.320,-26.367,0.000
1744693170.557,17.090,-21.484,-25.391,-18.555,0.000
1744693170.561,-67.871,-31.250,-30.273,-32.715,0.000
1744693170.565,-73.242,-32.715,-32.715,-41.504,0.000
1744693170.569,10.254,-24.414,-22.949,-27.344,0.000
1744693170.573,28.809,-18.066,-24.414,-20.996,0.000
1744693170.577,-41.504,-21.973,-34.668,-29.297,0.000
1744693170.581,-75.195,-25.391,-30.273,-32.715,0.000
1744693170.585,-4.883,-14.648,-15.137,-25.391,0.000
1744693170.589,36.133,-17.578,-18.066,-23.926,0.000
1744693170.593,-25.879,-31.738,-21.973,-25.391,0.000
1744693170.596,-86.914,-31.250,-24.414,-32.715,0.000
1744693170.600,-36.133,-29.297,-28.320,-36.133,0.000
1744693170.604,37.109,-20.508,-20.508,-25.879,0.000
1744693170.608,0.000,-22.949,-20.996,-27.344,0.000
1744693170.612,0.000,-36.621,-33.691,-39.551,0.000
1744693170.616,0.000,-29.785,-33.203,-39.551,0.000
1744693170.620,0.000,-16.602,-25.391,-29.785,0.000
1744693170.624,0.000,-15.625,-26.855,-13.184,0.000
1744693170.628,0.000,-12.695,-17.578,0.488,0.000
1744693170.632,0.000,-18.066,-20.020,-24.414,0.000
1744693170.635,0.000,-33.203,-36.621,-63.477,0.000
1744693170.639,0.000,-29.297,-32.715,-66.895,0.000
1744693170.643,0.000,-29.297,-29.785,-71.777,0.000
1744693170.647,0.000,-35.156,-42.969,-88.867,0.000
1744693170.651,0.000,-24.414,-43.457,-98.145,0.000
1744693170.655,-42.480,-11.230,-39.551,-96.191,0.000
1744693170.659,-96.680,-11.719,-40.527,-98.145,0.000
1744693170.663,-178.223,-12.695,-45.898,-118.164,0.000
1744693170.667,-135.742,-12.207,-54.688,-125.000,0.000
1744693170.671,-48.340,-11.719,-53.223,-111.328,0.000
1744693170.675,-63.477,-11.230,-48.340,-104.004,0.000
1744693170.678,-143.555,-18.555,-50.781,-107.422,0.000
1744693170.682,-128.906,-26.367,-56.641,-102.051,0.000
1744693170.686,-39.062,-19.531,-60.059,-90.332,0.000
1744693170.690,-23.438,-17.090,-52.246,-76.660,0.000
1744693170.694,-102.051,-26.855,-45.898,-79.102,0.000
1744693170.698,-124.512,-27.344,-45.410,-80.566,0.000
1744693170.702,-41.016,-20.508,-46.387,-73.730,0.000
1744693170.706,-5.859,-23.926,-49.805,-71.777,0.000
1744693170.710,-69.824,-32.227,-52.246,-69.336,0.000
1744693170.714,-111.816,-36.621,-50.293,-71.289,0.000
1744693170.717,-54.199,-28.320,-50.293,-70.312,0.000
1744693170.721,12.207,-10.254,-48.340,-58.105,0.000
1744693170.725,-29.785,-18.555,-43.945,-56.641,0.000
1744693170.729,-106.445,-39.551,-48.828,-63.965,0.000
1744693170.733,-59.082,-26.367,-42.480,-49.316,0.000
1744693170.737,19.531,-12.207,-36.621,-41.016,0.000
1744693170.741,-0.977,-15.625,-39.062,-40.527,0.000
1744693170.745,-77.637,-20.508,-36.621,-43.457,0.000
1744693170.749,-76.172,-23.926,-38.086,-49.316,0.000
1744693170.753,1.465,-22.949,-41.504,-41.504,0.000
1744693170.757,16.113,-25.879,-39.062,-38.574,0.000
1744693170.760,-61.523,-31.250,-36.621,-41.992,0.000
1744693170.764,-87.891,-32.715,-34.180,-44.922,0.000
1744693170.768,-10.254,-24.902,-27.344,-35.156,0.000
1744693170.772,26.855,-18.555,-25.391,-22.461,0.000
1744693170.776,-38.086,-25.391,-26.855,-20.508,0.000
1744693170.780,-100.098,-34.180,-32.715,-25.879,0.000
1744693170.784,-43.457,-32.715,-35.156,-26.855,0.000
1744693170.788,23.926,-25.391,-30.762,-21.484,0.000
1744693170.792,-16.602,-30.273,-29.785,-31.250,0.000
1744693170.796,-87.891,-34.180,-33.203,-36.621,0.000
1744693170.800,-55.664,-31.250,-34.668,-32.715,0.000
1744693170.803,22.949,-23.438,-30.762,-27.344,0.000
1744693170.807,6.836,-19.531,-30.762,-22.461,0.000
1744693170.811,-70.801,-25.391,-31.250,-29.297,0.000
1744693170.815,-61.523,-23.438,-29.297,-27.832,0.000
1744693170.819,20.996,-19.043,-32.715,-26.855,0.000
1744693170.823,33.203,-20.996,-33.691,-31.738,0.000
1744693170.827,-39.062,-24.902,-36.133,-31.250,0.000
1744693170.831,-75.684,-30.273,-40.527,-34.180,0.000
1744693170.835,-9.766,-25.879,-35.645,-38.574,0.000
1744693170.839,33.691,-20.996,-28.320,-36.133,0.000
1744693170.842,-23.438,-25.879,-26.855,-29.785,0.000
1744693170.846,-86.914,-34.668,-31.738,-31.738,0.000
1744693170.850,-28.809,-28.320,-25.879,-26.367,0.000
1744693170.854,42.969,-20.508,-19.531,-20.508,0.000
1744693170.858,-10.254,-23.926,-25.391,-28.320,0.000
1744693170.862,-93.750,-31.738,-34.668,-33.691,0.000
1744693170.866,-63.477,-31.250,-36.133,-32.227,0.000
1744693170.870,18.066,-25.879,-35.645,-24.414,0.000
1744693170.874,9.277,-24.902,-30.762,-17.090,0.000
1744693170.878,-74.707,-33.691,-30.273,-19.531,0.000
1744693170.882,-87.402,-39.062,-35.156,-20.996,0.000
1744693170.885,5.859,-24.414,-30.762,-15.137,0.000
1744693170.889,39.062,-16.602,-28.809,-13.672,0.000
1744693170.893,-39.551,-23.926,-34.668,-19.531,0.000
1744693170.897,-84.473,-28.320,-38.086,-20.508,0.000
1744693170.901,-17.578,-27.832,-30.762,-18.066,0.000
1744693170.905,34.180,-26.367,-23.438,-14.160,0.000
1744693170.909,-17.578,-26.855,-20.020,-14.160,0.000
1744693170.913,-84.473,-36.621,-23.926,-18.555,0.000
1744693170.917,-42.480,-37.109,-22.949,-20.020,0.000
1744693170.921,29.297,-23.438,-17.090,-17.090,0.000
1744693170.925,-1.465,-26.367,-26.855,-16.113,0.000
1744693170.928,-84.473,-43.457,-33.691,-25.879,0.000
1744693170.932,-66.895,-42.480,-30.273,-29.785,0.000
1744693170.936,0.000,-30.273,-27.344,-28.320,0.000
1744693170.940,0.000,-32.227,-30.762,-28.809,0.000
1744693170.944,0.000,-31.250,-28.809,-26.367,0.000
1744693170.948,0.000,-31.250,-30.762,-26.855,0.000
1744693170.952,0.000,-26.855,-29.785,-22.461,0.000
1744693170.956,0.000,-13.672,-22.461,-14.648,0.000
1744693170.960,0.000,-18.066,-23.926,-22.461,0.000
1744693170.964,0.000,-38.574,-30.762,-29.785,0.000
1744693170.967,0.000,-35.645,-29.785,-25.391,0.000
1744693170.971,0.000,-18.066,-20.508,-21.973,0.000
1744693170.975,0.000,-21.484,-25.879,-20.508,0.000
1744693170.979,0.000,-23.438,-29.297,-28.320,0.000
1744693170.983,-47.363,-22.949,-29.297,-30.762,0.000
1744693170.987,29.785,-20.996,-26.855,-20.508,0.000
1744693170.991,6.348,-20.996,-24.414,-17.578,0.000
1744693170.995,-74.707,-30.762,-26.855,-18.555,0.000
1744693170.999,-63.477,-33.691,-27.832,-21.484,0.000
1744693171.003,23.438,-20.020,-26.367,-19.043,0.000
1744693171.007,26.855,-18.555,-26.367,-21.973,0.000
1744693171.010,-64.453,-45.410,-36.621,-33.203,0.000
1744693171.014,-90.820,-45.410,-34.668,-29.297,0.000
1744693171.018,-4.883,-26.367,-29.297,-20.996,0.000
1744693171.022,41.016,-26.855,-29.297,-19.531,0.000
1744693171.026,-23.438,-32.227,-33.691,-23.438,0.000
1744693171.030,-79.590,-33.691,-40.039,-29.297,0.000
1744693171.034,-19.531,-27.832,-40.039,-22.461,0.000
1744693171.038,60.547,-8.789,-28.809,3.906,0.000
1744693171.042,19.531,-15.625,-10.254,13.184,0.000
1744693171.046,-86.426,-43.457,-12.695,-18.555,0.000
1744693171.049,-61.523,-37.598,-8.301,-32.227,0.000
1744693171.053,18.066,-28.809,1.465,-30.762,0.000
1744693171.057,-7.324,-44.922,-0.977,-29.297,0.000
1744693171.061,-89.355,-51.270,0.000,-25.391,0.000
1744693171.065,-91.309,-49.805,4.395,-24.414,0.000
1744693171.069,-4.883,-40.039,13.672,-23.926,0.000
1744693171.073,14.648,-31.250,16.602,-21.484,0.000
1744693171.077,-72.754,-44.434,9.766,-24.902,0.000
1744693171.081,-103.027,-46.875,6.348,-28.320,0.000
1744693171.085,-14.160,-30.762,8.301,-23.438,0.000
1744693171.089,29.785,-27.344,2.441,-22.949,0.000
1744693171.092,-40.527,-38.574,-4.395,-27.344,0.000
1744693171.096,-102.539,-43.945,-4.395,-30.762,0.000
1744693171.100,-46.387,-39.062,-0.977,-28.320,0.000
1744693171.104,21.484,-34.180,-2.441,-21.484,0.000
1744693171.108,-20.508,-41.504,-4.883,-23.926,0.000
1744693171.112,-99.121,-53.223,-10.254,-33.691,0.000
1744693171.116,-73.242,-49.805,-19.043,-38.574,0.000
1744693171.120,12.695,-36.133,-9.766,-25.391,0.000
1744693171.124,14.648,-30.273,0.488,-8.301,0.000
1744693171.128,-78.125,-42.480,-9.277,-20.996,0.000
1744693171.132,-94.727,-51.758,-21.973,-34.180,0.000
1744693171.135,-0.977,-33.691,-13.672,-22.461,0.000
1744693171.139,26.367,-27.344,-9.766,-16.113,0.000
1744693171.143,-51.758,-37.109,-18.555,-25.879,0.000
1744693171.147,-90.332,-41.504,-23.926,-31.250,0.000
1744693171.151,-19.043,-41.016,-27.832,-29.297,0.000
1744693171.155,41.016,-31.738,-28.809,-25.391,0.000
1744693171.159,-12.207,-32.227,-22.461,-21.973,0.000
1744693171.163,-86.426,-39.062,-18.555,-23.926,0.000
1744693171.167,-37.109,-31.250,-15.625,-20.996,0.000
1744693171.171,44.922,-20.020,-14.160,-12.695,0.000
1744693171.174,8.789,-26.855,-21.484,-14.160,0.000
1744693171.178,-77.148,-40.039,-27.344,-20.508,0.000
1744693171.182,-55.664,-41.016,-27.832,-20.508,0.000
1744693171.186,24.414,-36.621,-24.414,-17.578,0.000
1744693171.190,28.320,-29.785,-20.996,-18.066,0.000
1744693171.194,-49.805,-35.156,-24.414,-21.973,0.000
1744693171.198,-75.195,-44.922,-29.297,-26.855,0.000
1744693171.202,16.602,-34.180,-27.344,-20.996,0.000
1744693171.206,44.922,-19.531,-21.973,-12.695,0.000
1744693171.210,-42.969,-27.344,-24.414,-16.602,0.000
1744693171.214,-83.984,-36.133,-32.227,-27.832,0.000
1744693171.217,-18.066,-23.438,-36.133,-27.344,0.000
1744693171.221,37.598,-16.602,-32.227,-18.066,0.000
1744693171.225,-14.648,-22.949,-31.250,-22.949,0.000
1744693171.229,-84.473,-27.832,-37.598,-25.391,0.000
1744693171.233,-43.457,-24.902,-34.668,-18.066,0.000
1744693171.237,33.203,-13.184,-33.203,-13.672,0.000
1744693171.241,11.719,-16.113,-34.180,-3.418,0.000
1744693171.245,-61.523,-29.297,-33.203,1.465,0.000
1744693171.249,-42.969,-19.043,-37.598,-6.836,0.000
1744693171.253,41.504,-11.719,-35.645,-4.883,0.000
1744693171.256,53.223,-17.578,-41.992,4.395,0.000
1744693171.260,-21.484,-20.020,-46.875,3.418,0.000
1744693171.264,-32.227,-20.020,-43.945,5.371,0.000
1744693171.268,53.711,-17.578,-48.828,13.184,0.000
1744693171.272,107.422,-9.277,-45.898,24.902,0.000
1744693171.276,62.500,-10.742,-51.270,31.738,0.000
1744693171.280,4.883,-30.273,-58.594,32.715,0.000
1744693171.284,66.895,-24.902,-47.852,42.480,0.000
1744693171.288,132.812,-8.789,-47.852,42.969,0.000
1744693171.292,81.543,-15.625,-52.734,35.645,0.000
1744693171.296,9.766,-20.996,-54.688,28.809,0.000
1744693171.299,50.781,-10.254,-57.129,26.855,0.000
1744693171.303,128.906,-0.488,-51.270,32.227,0.000
1744693171.307,103.516,-4.883,-48.828,30.273,0.000
1744693171.311,8.789,-12.695,-56.152,19.531,0.000
1744693171.315,1.953,-18.555,-59.082,8.301,0.000
1744693171.319,81.055,-17.090,-52.246,8.301,0.000
1744693171.323,90.332,-14.160,-45.410,14.160,0.000
1744693171.327,7.324,-17.090,-41.504,11.719,0.000
1744693171.331,-30.762,-19.531,-39.551,5.371,0.000
1744693171.335,39.062,-17.578,-39.551,8.301,0.000
1744693171.339,80.566,-14.160,-37.598,11.719,0.000
1744693171.342,12.695,-20.996,-45.898,-3.906,0.000
1744693171.346,-54.688,-34.668,-52.246,-18.066,0.000
1744693171.350,-1.465,-24.902,-43.457,-16.113,0.000
1744693171.354,65.430,-18.555,-40.527,-11.230,0.000
1744693171.358,0.000,-28.809,0.000,0.000,0.000
1744693171.362,0.000,-32.227,0.000,0.000,0.000
1744693171.366,0.000,-19.043,0.000,0.000,0.000
1744693171.370,0.000,-14.160,0.000,0.000,0.000
1744693171.374,0.000,-23.438,0.000,0.000,0.000
1744693171.378,0.000,-23.926,0.000,0.000,0.000
1744693171.381,0.000,-23.438,0.000,0.000,0.000
1744693171.385,0.000,-20.508,0.000,0.000,0.000
1744693171.389,0.000,-21.484,0.000,0.000,0.000
1744693171.393,0.000,-26.855,0.000,0.000,0.000
1744693171.397,0.000,-29.785,0.000,0.000,0.000
1744693171.401,0.000,-27.832,0.000,0.000,0.000
1744693171.405,21.484,-20.508,-42.969,-0.488,0.000
1744693171.409,-59.082,-26.855,-45.410,4.883,0.000
1744693171.413,-24.902,-40.527,-38.086,-2.441,0.000
1744693171.417,62.012,-31.738,-31.738,-0.488,0.000
1744693171.421,45.898,-23.438,-35.645,5.371,0.000
1744693171.424,-30.273,-26.855,-35.156,-3.906,0.000
1744693171.428,-35.645,-36.133,-34.668,-13.184,0.000
1744693171.432,43.457,-39.062,-27.344,-13.672,0.000
1744693171.436,60.547,-20.020,-21.973,-7.812,0.000
1744693171.440,-19.043,-19.043,-20.508,-4.395,0.000
1744693171.444,-55.664,-32.715,-23.926,-8.301,0.000
1744693171.448,13.184,-34.180,-26.367,-14.648,0.000
1744693171.452,-2.930,-26.367,-34.180,-16.113,0.000
1744693171.456,20.996,-25.391,-32.715,-13.672,0.000
1744693171.460,-47.363,-28.320,-37.598,-16.113,0.000
1744693171.464,-91.797,-31.738,-39.062,-21.973,0.000
1744693171.467,-20.508,-27.344,-31.738,-20.508,0.000
1744693171.471,36.133,-17.090,-29.785,-19.531,0.000
1744693171.475,-18.555,-20.996,-32.227,-20.996,0.000
1744693171.479,-93.750,-36.621,-36.621,-23.926,0.000
1744693171.483,-43.457,-35.156,-35.156,-18.555,0.000
1744693171.487,42.480,-21.484,-23.926,-7.324,0.000
1744693171.491,15.137,-19.043,-20.508,-7.324,0.000
1744693171.495,-62.500,-26.367,-24.902,-10.742,0.000
1744693171.499,-51.758,-30.273,-31.738,-12.207,0.000
1744693171.503,25.879,-21.484,-29.785,-14.648,0.000
1744693171.506,23.926,-18.555,-27.832,-13.672,0.000
1744693171.510,-50.293,-24.902,-26.855,-14.648,0.000
1744693171.514,-62.988,-31.250,-23.438,-15.137,0.000
1744693171.518,12.695,-19.531,-18.066,-15.625,0.000
1744693171.522,41.504,-14.160,-15.137,-16.602,0.000
1744693171.526,-42.480,-31.250,-21.973,-20.508,0.000
1744693171.530,-107.422,-42.480,-29.785,-34.668,0.000
1744693171.534,-42.480,-36.621,-29.297,-39.062,0.000
1744693171.538,17.578,-30.762,-26.367,-33.691,0.000
1744693171.542,-23.926,-34.180,-26.367,-32.227,0.000
1744693171.546,0.000,-38.574,-24.414,-34.180,0.000
1744693171.549,0.000,-38.574,-19.043,-30.762,0.000
1744693171.553,0.000,-32.715,-23.926,-28.320,0.000
1744693171.557,0.000,-32.715,-24.414,-26.367,0.000
1744693171.561,0.000,-36.621,-15.137,-26.367,0.000
1744693171.565,0.000,-33.203,-20.020,-32.227,0.000
1744693171.569,0.000,-27.832,-20.996,-28.320,0.000
1744693171.573,0.000,-25.391,-12.207,-18.555,0.000
1744693171.577,0.000,-31.738,-19.531,-20.020,0.000
1744693171.581,0.000,-41.504,-28.320,-28.809,0.000
1744693171.585,0.000,-38.086,-21.973,-25.391,0.000
1744693171.588,0.000,-25.391,-18.066,-17.578,0.000
1744693171.592,-33.691,-25.879,-21.484,-13.184,0.000
1744693171.596,-96.191,-29.297,-21.484,-21.484,0.000
1744693171.600,-33.691,-23.438,-17.578,-25.391,0.000
1744693171.604,37.598,-13.672,-23.926,-20.996,0.000
1744693171.608,3.906,-9.277,-25.879,-21.484,0.000
1744693171.612,-70.312,-17.090,-25.391,-25.879,0.000
1744693171.616,-44.434,-19.531,-25.879,-28.320,0.000
1744693171.620,34.180,-21.973,-21.973,-26.855,0.000
1744693171.624,23.926,-27.344,-25.879,-28.320,0.000
1744693171.628,-62.500,-30.762,-32.227,-37.598,0.000
1744693171.631,-76.172,-28.809,-34.180,-38.086,0.000
1744693171.635,10.254,-23.438,-39.062,-29.297,0.000
1744693171.639,38.574,-22.461,-39.551,-27.344,0.000
1744693171.643,-40.527,-26.367,-38.086,-34.180,0.000
1744693171.647,-79.590,-32.715,-36.621,-39.062,0.000
1744693171.651,-0.488,-28.809,-29.297,-28.809,0.000
1744693171.655,41.504,-15.625,-28.320,-29.785,0.000
1744693171.659,-27.832,-16.113,-39.062,-42.480,0.000
1744693171.663,-88.867,-17.090,-45.898,-47.852,0.000
1744693171.667,-38.574,-14.648,-39.062,-42.480,0.000
1744693171.671,22.949,-19.531,-34.180,-33.691,0.000
1744693171.674,-16.113,-25.391,-33.691,-28.809,0.000
1744693171.678,-92.285,-35.645,-36.621,-33.203,0.000
1744693171.682,-69.336,-37.598,-36.621,-33.203,0.000
1744693171.686,11.719,-30.273,-35.645,-24.414,0.000
1744693171.690,10.254,-30.273,-32.715,-21.484,0.000
1744693171.694,-73.242,-33.691,-34.668,-21.973,0.000
1744693171.698,-83.984,-35.645,-34.180,-24.414,0.000
1744693171.702,-2.930,-25.391,-26.367,-18.555,0.000
1744693171.706,30.762,-10.742,-22.949,-4.883,0.000
1744693171.710,-45.410,-22.949,-27.832,-4.883,0.000
1744693171.713,-100.098,-45.410,-36.133,-15.625,0.000
1744693171.717,-25.879,-40.527,-32.227,-14.648,0.000
1744693171.721,26.367,-27.344,-26.367,-12.207,0.000
1744693171.725,-29.785,-32.715,-25.879,-13.184,0.000
1744693171.729,-96.191,-39.551,-28.809,-14.648,0.000
1744693171.733,0.000,-29.785,-29.785,-20.020,0.000
1744693171.737,0.000,-17.090,-24.414,-20.508,0.000
1744693171.741,0.000,-19.043,-27.832,-19.043,0.000
1744693171.745,0.000,-31.738,-32.227,-26.855,0.000
1744693171.749,0.000,-34.180,-30.762,-28.320,0.000
1744693171.753,0.000,-24.414,-27.832,-21.484,0.000
1744693171.756,0.000,-17.578,-25.391,-18.066,0.000
1744693171.760,0.000,-23.438,-26.855,-21.484,0.000
1744693171.764,0.000,-37.109,-33.203,-25.879,0.000
1744693171.768,0.000,-31.738,-32.715,-22.949,0.000
1744693171.772,0.000,-23.926,-32.227,-20.508,0.000
1744693171.776,0.000,-26.367,-30.762,-20.508,0.000
1744693171.780,-50.781,-32.227,-29.785,-23.926,0.000
1744693171.784,29.297,-34.668,-31.738,-25.879,0.000
1744693171.788,1.953,-22.949,-32.715,-19.531,0.000
1744693171.792,-85.938,-20.508,-33.691,-18.066,0.000
1744693171.795,-73.730,-30.273,-37.598,-26.367,0.000
1744693171.799,13.184,-23.438,-32.715,-24.902,0.000
1744693171.803,21.973,-16.113,-33.691,-23.438,0.000
1744693171.807,-58.105,-29.297,-41.504,-27.344,0.000
1744693171.811,-82.031,-34.668,-39.551,-29.785,0.000
1744693171.815,4.883,-28.809,-40.039,-28.809,0.000
1744693171.819,39.062,-26.367,-39.062,-31.738,0.000
1744693171.823,-35.645,-27.344,-37.109,-38.574,0.000
1744693171.827,-63.965,-37.109,-38.574,-42.969,0.000
1744693171.831,-89.844,-39.551,-39.551,-49.316,0.000
1744693171.835,-14.160,-33.203,-34.668,-48.828,0.000
1744693171.838,24.902,-28.809,-29.785,-39.551,0.000
1744693171.842,-43.945,-33.691,-31.250,-39.551,0.000
1744693171.846,-99.609,-38.574,-35.645,-43.457,0.000
1744693171.850,-39.551,-28.320,-31.738,-40.039,0.000
1744693171.854,23.438,-30.273,-32.715,-39.551,0.000
1744693171.858,-15.625,-38.574,-33.203,-35.645,0.000
1744693171.862,-85.938,-35.156,-28.809,-29.297,0.000
1744693171.866,-59.082,-34.180,-28.320,-29.785,0.000
1744693171.870,19.531,-29.785,-23.926,-25.879,0.000
1744693171.874,0.000,-31.738,-31.738,-25.879,0.000
1744693171.878,-87.402,-41.504,-36.621,-30.762,0.000
1744693171.881,-76.660,-37.598,-26.855,-26.855,0.000
1744693171.885,10.254,-30.762,-24.414,-24.414,0.000
1744693171.889,27.832,-18.066,-21.973,-21.973,0.000
1744693171.893,-52.246,-24.414,-28.320,-19.043,0.000
1744693171.897,-84.961,-40.039,-38.086,-20.508,0.000
1744693171.901,-2.441,-29.785,-32.227,-19.531,0.000
1744693171.905,43.457,-24.414,-25.391,-16.602,0.000
1744693171.909,-23.926,-38.574,-28.320,-22.949,0.000
1744693171.913,-84.473,-45.410,-32.715,-29.297,0.000
1744693171.917,-26.367,-34.180,-25.879,-23.438,0.000
1744693171.920,0.000,-21.973,-22.461,-20.508,0.000
1744693171.924,0.000,-23.926,-29.785,-24.902,0.000
1744693171.928,0.000,-33.691,-29.785,-27.832,0.000
1744693171.932,0.000,-27.344,-19.043,-23.926,0.000
1744693171.936,0.000,-20.996,-21.973,-21.973,0.000
1744693171.940,0.000,-23.438,-33.691,-25.391,0.000
1744693171.944,0.000,-24.414,-35.156,-32.715,0.000
1744693171.948,0.000,-29.297,-36.133,-39.062,0.000
1744693171.952,0.000,-27.832,-36.621,-35.156,0.000
1744693171.956,0.000,-25.391,-29.785,-26.855,0.000
1744693171.960,0.000,-32.715,-30.762,-30.273,0.000
1744693171.963,0.000,-33.203,-31.250,-36.133,0.000
1744693171.967,-20.508,-22.461,0.000,-28.809,0.000
1744693171.971,29.297,-14.648,0.000,-22.461,0.000
1744693171.975,-31.250,-22.949,0.000,-24.414,0.000
1744693171.979,-100.098,-31.738,0.000,-36.133,0.000
1744693171.983,-48.340,-25.391,0.000,-35.156,0.000
1744693171.987,30.273,-17.578,0.000,-30.273,0.000
1744693171.991,-5.859,-16.113,0.000,-33.691,0.000
1744693171.995,-92.285,-26.855,0.000,-38.086,0.000
1744693171.999,-72.754,-37.109,0.000,-38.574,0.000
1744693172.002,19.531,-26.367,0.000,-32.227,0.000
1744693172.006,21.973,-16.113,0.000,-28.320,0.000
1744693172.010,-68.359,-27.832,0.000,-32.715,0.000
1744693172.014,0.000,-31.738,-43.945,-34.180,0.000
1744693172.018,0.000,-18.066,-38.574,-20.508,0.000
1744693172.022,0.000,-8.301,-23.926,-1.465,0.000
1744693172.026,0.000,-24.902,-25.879,-28.320,0.000
1744693172.030,0.000,-35.645,-35.156,-69.824,0.000
1744693172.034,0.000,-18.555,-34.668,-76.660,0.000
1744693172.038,0.000,-17.090,-33.691,-79.590,0.000
1744693172.042,0.000,-31.250,-37.109,-95.215,0.000
1744693172.045,0.000,-30.273,-38.086,-106.445,0.000
1744693172.049,0.000,-26.367,-39.551,-113.770,0.000
1744693172.053,0.000,-16.113,-38.574,-118.164,0.000
1744693172.057,0.000,-8.789,-38.574,-115.723,0.000
1744693172.061,-88.379,-18.555,0.000,-125.000,0.000
1744693172.065,3.418,-30.273,0.000,-152.832,0.000
1744693172.069,51.758,-26.367,0.000,-157.715,0.000
1744693172.073,-46.875,-22.949,0.000,-139.160,0.000
1744693172.077,-138.672,-31.250,0.000,-140.137,0.000
1744693172.081,-85.449,-28.320,0.000,-146.484,0.000
1744693172.085,-36.133,-20.996,0.000,-132.812,0.000
1744693172.088,-99.609,-26.367,0.000,-121.094,0.000
1744693172.092,-168.457,-29.785,0.000,-117.188,0.000
1744693172.096,-130.371,-31.250,0.000,-114.746,0.000
1744693172.100,-70.801,-30.273,0.000,-112.793,0.000
1744693172.104,-96.191,-20.508,0.000,-102.051,0.000
1744693172.108,-177.734,-26.367,-46.387,-103.516,0.000
1744693172.112,-192.871,-42.969,-55.664,-108.887,0.000
1744693172.116,-124.023,-32.227,-54.688,-99.121,0.000
1744693172.120,-101.074,-21.973,-44.922,-82.031,0.000
1744693172.124,-175.293,-29.785,-35.645,-69.824,0.000
1744693172.127,-198.242,-23.926,-28.809,-64.941,0.000
1744693172.131,-110.840,-18.066,-28.320,-57.129,0.000
1744693172.135,-68.359,-22.461,-29.297,-53.223,0.000
1744693172.139,-128.418,-23.926,-29.297,-52.734,0.000
1744693172.143,-168.945,-25.391,-29.297,-46.875,0.000
1744693172.147,-97.656,-27.832,-33.203,-45.898,0.000
1744693172.151,-29.785,-22.949,-39.062,-49.316,0.000
1744693172.155,-70.801,-20.508,0.000,-44.434,0.000
1744693172.159,-146.973,-29.297,0.000,-43.945,0.000
1744693172.163,-115.723,-30.273,0.000,-45.898,0.000
1744693172.167,-28.809,-22.949,0.000,-35.156,0.000
1744693172.170,-35.645,-18.066,0.000,-28.809,0.000
1744693172.174,-109.863,-18.066,0.000,-32.715,0.000
1744693172.178,-104.492,-23.438,0.000,-35.645,0.000
1744693172.182,-19.531,-27.832,0.000,-32.227,0.000
1744693172.186,-4.883,-25.391,0.000,-27.832,0.000
1744693172.190,-80.078,-29.785,0.000,-26.367,0.000
1744693172.194,-113.770,-43.457,0.000,-33.203,0.000
1744693172.198,-38.574,-43.457,0.000,-37.109,0.000
1744693172.202,-4.883,-27.832,-27.832,-31.250,0.000
1744693172.206,7.324,-18.555,-32.715,-29.785,0.000
1744693172.209,-66.895,-29.785,-37.109,-36.621,0.000
1744693172.213,-100.098,-39.062,-35.645,-38.086,0.000
1744693172.217,-30.762,-31.250,-28.320,-31.738,0.000
1744693172.221,19.531,-20.996,-30.273,-27.832,0.000
1744693172.225,-25.879,-17.578,-37.598,-23.926,0.000
1744693172.229,-88.379,-27.344,-35.645,-26.367,0.000
1744693172.233,-46.875,-26.367,-30.273,-22.461,0.000
1744693172.237,21.973,-16.113,-32.227,-20.508,0.000
1744693172.241,5.859,-11.230,-34.180,-24.414,0.000
1744693172.245,-68.848,-21.484,-36.621,-28.320,0.000
1744693172.249,0.000,-23.926,-37.598,-30.273,0.000
1744693172.252,0.000,-14.160,-32.227,-21.973,0.000
1744693172.256,0.000,-12.207,-32.715,-18.555,0.000
1744693172.260,0.000,-16.602,-38.086,-22.461,0.000
1744693172.264,0.000,-23.438,-36.621,-25.879,0.000
1744693172.268,0.000,-13.672,-31.738,-22.949,0.000
1744693172.272,0.000,-10.254,-30.273,-11.719,0.000
1744693172.276,0.000,-26.367,-33.203,-17.090,0.000
1744693172.280,0.000,-35.156,-33.203,-30.762,0.000
1744693172.284,0.000,-26.855,-29.785,-25.391,0.000
1744693172.288,0.000,-9.766,-27.832,-17.090,0.000
1744693172.291,0.000,-17.090,-30.762,-17.578,0.000
1744693172.295,-93.262,-39.551,-34.180,-27.832,0.000
1744693172.299,-47.852,-37.109,-32.715,-30.762,0.000
1744693172.303,28.320,-20.996,-30.762,-17.578,0.000
1744693172.307,5.859,-18.555,-31.738,-12.695,0.000
1744693172.311,-70.801,-27.344,-35.645,-15.137,0.000
1744693172.315,-41.992,-22.461,-28.809,-1.465,0.000
1744693172.319,36.133,-23.438,-17.578,-2.441,0.000
1744693172.323,17.090,-35.645,-16.113,-22.461,0.000
1744693172.327,-65.430,-46.387,-17.090,-24.414,0.000
1744693172.331,-76.660,-50.293,-21.484,-10.254,0.000
1744693172.334,15.137,-40.039,-12.695,4.883,0.000
1744693172.338,53.711,-33.203,-2.930,9.766,0.000
1744693172.342,-10.742,-41.504,-3.906,9.766,0.000
1744693172.346,-63.477,-50.293,-9.277,7.812,0.000
1744693172.350,-1.465,-41.504,-9.277,9.277,0.000
1744693172.354,68.359,-29.297,0.000,16.602,0.000
1744693172.358,23.438,-31.738,-1.953,15.625,0.000
1744693172.362,-49.316,-40.527,-9.277,8.301,0.000
1744693172.366,-18.555,-39.551,-10.254,6.348,0.000
1744693172.370,56.641,-30.273,-10.742,12.207,0.000
1744693172.374,36.621,-31.250,-18.555,10.254,0.000
1744693172.377,-47.363,-39.551,-20.996,9.277,0.000
1744693172.381,-44.922,-37.598,-13.184,3.418,0.000
1744693172.385,35.156,-26.367,-11.719,1.953,0.000
1744693172.389,46.875,-20.996,-17.578,0.000,0.000
1744693172.393,-32.715,-28.809,-13.184,-4.395,0.000
1744693172.397,-68.848,-41.992,-11.230,0.488,0.000
1744693172.401,8.301,-29.297,-10.742,5.859,0.000
1744693172.405,55.176,-17.578,-8.789,13.184,0.000
1744693172.409,-13.672,-24.902,-14.160,2.930,0.000
1744693172.413,-77.637,-34.668,-21.484,-7.812,0.000
1744693172.416,-25.879,-39.551,-17.578,-5.371,0.000
1744693172.420,43.945,-23.926,-9.766,0.977,0.000
1744693172.424,6.348,-20.508,-18.555,-2.441,0.000
1744693172.428,-74.707,-29.785,-21.973,-9.766,0.000
1744693172.432,-47.363,-30.273,-15.625,-12.695,0.000
1744693172.436,36.133,-25.391,-12.207,-9.277,0.000
1744693172.440,21.484,-22.461,-16.113,-8.301,0.000
1744693172.444,-69.824,-28.320,-18.066,-13.184,0.000
1744693172.448,-73.242,-30.273,-14.648,-16.113,0.000
1744693172.452,15.625,-20.508,-17.578,-17.090,0.000
1744693172.456,38.574,-14.648,-15.625,-16.113,0.000
1744693172.459,-31.738,-12.695,-16.602,-16.113,0.000
1744693172.463,-76.172,-26.367,-26.367,-21.973,0.000
1744693172.467,-11.719,-35.645,-26.855,-20.508,0.000
1744693172.471,42.969,-22.949,-19.531,-14.160,0.000
1744693172.475,-16.113,-20.996,-20.020,-19.043,0.000
1744693172.479,-86.914,-35.156,-30.273,-30.762,0.000
1744693172.483,-37.598,-36.133,-28.320,-29.297,0.000
1744693172.487,42.480,-23.438,-17.578,-20.020,0.000
1744693172.491,7.812,-24.414,-20.996,-17.578,0.000
1744693172.495,-77.148,-32.227,-25.391,-20.020,0.000
1744693172.499,-56.152,-37.109,-29.297,-26.367,0.000
1744693172.502,37.598,-18.066,-17.578,-12.207,0.000
1744693172.506,40.039,-9.277,-8.789,0.000,0.000
1744693172.510,-62.988,-38.574,-24.902,-16.113,0.000
1744693172.514,-81.055,-43.945,-28.320,-23.926,0.000
1744693172.518,8.301,-33.203,-22.461,-18.066,0.000
1744693172.522,32.715,-29.785,-25.391,-15.625,0.000
1744693172.526,-46.875,-33.203,-29.297,-19.531,0.000
1744693172.530,-87.891,-38.574,-26.367,-27.832,0.000
1744693172.534,-13.672,-27.832,-23.926,-24.902,0.000
1744693172.538,38.086,-21.973,-23.438,-22.461,0.000
1744693172.541,-17.090,-25.391,-19.043,-22.949,0.000
1744693172.545,-81.543,-29.297,-19.043,-24.414,0.000
1744693172.549,-36.133,-22.461,-16.602,-20.508,0.000
1744693172.553,30.762,-15.137,-20.996,-15.137,0.000
1744693172.557,-1.953,-26.367,-31.250,-20.020,0.000
1744693172.561,-82.031,-38.574,-32.227,-30.762,0.000
1744693172.565,-71.289,-37.598,-27.344,-35.156,0.000
1744693172.569,15.137,-25.391,-20.996,-24.902,0.000
1744693172.573,17.090,-24.414,-20.508,-22.461,0.000
1744693172.577,0.000,-34.668,-27.832,-29.785,0.000
1744693172.581,0.000,-38.574,-28.809,-32.227,0.000
1744693172.584,0.000,-35.156,-21.973,-28.320,0.000
1744693172.588,0.000,-28.809,-25.879,-25.391,0.000
1744693172.592,0.000,-27.344,-29.297,-25.391,0.000
1744693172.596,0.000,-31.250,-27.344,-27.832,0.000
1744693172.600,0.000,-33.691,-27.832,-28.809,0.000
1744693172.604,0.000,-33.203,-24.414,-24.902,0.000
1744693172.608,0.000,-37.109,-26.855,-26.367,0.000
1744693172.612,0.000,-39.551,-32.227,-31.738,0.000
1744693172.616,0.000,-36.621,-33.203,-28.809,0.000
1744693172.620,0.000,-28.320,-31.250,-20.020,0.000
1744693172.623,-67.383,-27.344,-27.832,-23.438,0.000
1744693172.627,-82.031,-38.574,-29.785,-34.180,0.000
1744693172.631,-1.953,-38.574,-33.203,-36.133,0.000
1744693172.635,26.367,-27.832,-26.855,-27.832,0.000
1744693172.639,-40.039,-24.414,-17.090,-25.391,0.000
1744693172.643,-87.891,-31.738,-22.461,-33.203,0.000
1744693172.647,-26.855,-34.180,-32.227,-35.645,0.000
1744693172.651,39.062,-25.879,-25.391,-30.762,0.000
1744693172.655,-12.695,-18.066,-25.391,-37.598,0.000
1744693172.659,-86.426,-31.250,-35.156,-42.969,0.000
1744693172.663,-49.316,-37.598,-29.297,-45.898,0.000
1744693172.666,26.367,-23.926,-26.855,-56.152,0.000
1744693172.670,-9.766,-23.438,-24.414,-59.570,0.000
1744693172.674,-54.688,-30.273,-26.855,-63.477,0.000
1744693172.678,-133.301,-33.691,-32.715,-80.078,0.000
1744693172.682,-126.465,-34.180,-40.527,-104.004,0.000
1744693172.686,-80.566,-29.785,-40.527,-122.070,0.000
1744693172.690,-96.680,-27.344,-42.480,-127.930,0.000
1744693172.694,-187.500,-32.715,-49.316,-137.207,0.000
1744693172.698,-196.777,-40.527,-50.781,-157.715,0.000
1744693172.702,-126.953,-43.945,-54.688,-169.434,0.000
1744693172.705,-123.535,-42.969,-51.758,-169.434,0.000
1744693172.709,-201.172,-38.574,-46.875,-174.805,0.000
1744693172.713,-236.816,-40.527,-51.758,-183.594,0.000
1744693172.717,-172.363,-37.109,-55.664,-187.500,0.000
1744693172.721,-125.488,-27.832,-53.223,-180.664,0.000
1744693172.725,-175.781,-34.668,-55.176,-176.758,0.000
1744693172.729,-226.562,-38.574,-58.105,-174.316,0.000
1744693172.733,-166.992,-25.391,-59.082,-167.969,0.000
1744693172.737,-86.914,-11.230,-54.199,-154.297,0.000
1744693172.741,-103.027,-4.883,-54.199,-138.672,0.000
1744693172.745,-163.086,-15.625,-62.012,-129.395,0.000
1744693172.748,-130.859,-24.414,-58.105,-111.816,0.000
1744693172.752,-42.480,-16.602,-50.293,-86.426,0.000
1744693172.756,-22.949,-4.395,-47.363,-64.941,0.000
1744693172.760,-85.938,-7.812,-50.293,-53.223,0.000
1744693172.764,-81.543,-15.137,-49.316,-42.480,0.000
1744693172.768,14.648,-11.719,-43.945,-35.156,0.000
1744693172.772,41.504,-12.695,-50.293,-35.645,0.000
1744693172.776,-23.926,-21.484,-55.176,-24.902,0.000
1744693172.780,-53.711,-31.738,-52.734,-11.719,0.000
1744693172.784,22.949,-18.066,-44.922,1.465,0.000
1744693172.788,82.520,-4.883,-41.504,10.254,0.000
1744693172.791,27.832,-17.090,-47.363,10.742,0.000
1744693172.795,-39.551,-33.691,-49.805,12.207,0.000
1744693172.799,12.695,-27.344,-39.551,18.066,0.000
1744693172.803,87.891,-24.414,-35.156,20.996,0.000
1744693172.807,57.129,-28.809,-36.133,21.484,0.000
1744693172.811,-17.578,-29.785,-36.621,21.484,0.000
1744693172.815,-4.395,-33.203,-34.668,21.484,0.000
1744693172.819,85.449,-19.043,-22.461,33.203,0.000
1744693172.823,99.121,-10.742,-17.578,42.969,0.000
1744693172.827,7.324,-29.297,-32.715,30.273,0.000
1744693172.830,-14.160,-32.227,-33.691,24.902,0.000
1744693172.834,75.195,-18.066,-22.461,35.156,0.000
1744693172.838,104.980,-20.508,-21.973,38.574,0.000
1744693172.842,31.250,-25.391,-25.391,36.133,0.000
1744693172.846,-20.508,-35.156,-32.715,28.809,0.000
1744693172.850,40.527,-30.273,-27.344,31.738,0.000
1744693172.854,95.703,-18.555,-20.508,35.156,0.000
1744693172.858,0.000,-18.066,0.000,35.156,0.000
1744693172.862,0.000,-29.297,0.000,34.180,0.000
1744693172.866,0.000,-38.086,0.000,30.273,0.000
1744693172.870,0.000,-26.855,0.000,37.598,0.000
1744693172.873,0.000,-24.902,0.000,35.645,0.000
1744693172.877,0.000,-34.668,0.000,21.973,0.000
1744693172.881,0.000,-41.016,0.000,17.578,0.000
1744693172.885,0.000,-37.109,0.000,17.578,0.000
1744693172.889,0.000,-27.832,0.000,26.855,0.000
1744693172.893,0.000,-36.621,0.000,27.832,0.000
1744693172.897,0.000,-43.945,0.000,18.555,0.000
1744693172.901,0.000,-32.227,0.000,27.344,0.000
1744693172.905,91.309,-20.508,-7.812,30.273,0.000
1744693172.909,20.508,-22.949,-11.230,27.344,0.000
1744693172.913,-37.598,-31.250,-16.113,22.461,0.000
1744693172.916,15.137,-34.668,-23.926,16.113,0.000
1744693172.920,76.172,-31.738,-20.508,21.484,0.000
1744693172.924,36.621,-20.508,-18.555,22.949,0.000
1744693172.928,-44.434,-27.344,-30.762,14.648,0.000
1744693172.932,-24.902,-41.016,-37.109,9.277,0.000
1744693172.936,56.641,-39.551,-28.320,15.625,0.000
1744693172.940,46.875,-40.527,-22.949,17.578,0.000
1744693172.944,-35.156,-41.504,-23.926,10.254,0.000
1744693172.948,-38.086,-41.992,-27.344,6.836,0.000
1744693172.952,38.086,-40.039,-26.367,7.324,0.000
1744693172.955,55.176,-37.598,-23.926,7.324,0.000
1744693172.959,-27.832,-41.504,-26.855,1.465,0.000
1744693172.963,-68.359,-51.758,-30.273,-6.836,0.000
1744693172.967,12.207,-38.086,-29.297,-6.348,0.000
1744693172.971,57.617,-18.555,-25.391,-6.836,0.000
1744693172.975,-11.230,-27.832,-28.809,-6.836,0.000
1744693172.979,-76.660,-40.527,-29.297,-6.348,0.000
1744693172.983,-16.113,-32.715,-20.508,-2.441,0.000
1744693172.987,56.152,-23.926,-21.484,-0.488,0.000
1744693172.991,12.207,-22.461,-27.832,-4.395,0.000
1744693172.995,-70.801,-26.367,-27.832,-13.184,0.000
1744693172.998,-41.992,-20.996,-25.391,-12.695,0.000
1744693173.002,40.039,-20.508,-19.043,-2.930,0.000
1744693173.006,33.691,-19.531,-20.020,0.000,0.000
1744693173.010,-46.875,-22.461,-25.391,-1.465,0.000
1744693173.014,-55.664,-22.949,-28.320,-5.371,0.000
1744693173.018,30.273,-5.859,-26.855,-3.418,0.000
1744693173.022,49.805,-11.230,-27.832,-2.930,0.000
1744693173.026,-34.180,-28.320,-28.809,-9.277,0.000
1744693173.030,-74.219,-30.273,-33.691,-18.555,0.000
1744693173.034,-2.930,-27.344,-34.180,-15.625,0.000
1744693173.037,41.992,-25.879,-25.391,-12.207,0.000
1744693173.041,-14.160,-28.809,-29.297,-22.461,0.000
1744693173.045,-80.078,-34.668,-35.645,-28.320,0.000
1744693173.049,-24.414,-26.855,-36.133,-26.367,0.000
1744693173.053,71.289,-7.324,-38.086,-3.418,0.000
1744693173.057,39.551,-15.625,-23.438,12.695,0.000
1744693173.061,-76.660,-40.039,-18.066,-22.461,0.000
1744693173.065,-88.379,-32.715,-22.461,-53.223,0.000
1744693173.069,-14.160,-23.438,-16.113,-45.410,0.000
1744693173.073,-20.996,-34.180,-14.160,-46.387,0.000
1744693173.077,-112.793,-45.898,-16.602,-60.547,0.000
1744693173.080,-136.719,-50.781,-17.090,-70.801,0.000
1744693173.084,-54.199,-37.598,-7.812,-69.824,0.000
1744693173.088,-18.066,-31.738,-1.953,-57.617,0.000
1744693173.092,-84.961,-38.086,0.000,-48.340,0.000
1744693173.096,-127.441,-40.527,0.000,-50.293,0.000
1744693173.100,-63.965,-39.551,0.000,-55.664,0.000
1744693173.104,-3.418,-36.621,0.000,-48.340,0.000
1744693173.108,-42.969,-32.715,0.000,-36.133,0.000
1744693173.112,-104.980,-32.227,0.000,-36.133,0.000
1744693173.116,-61.523,-28.809,0.000,-34.180,0.000
1744693173.120,11.230,-24.902,0.000,-32.715,0.000
1744693173.123,-9.277,-29.297,0.000,-32.227,0.000
1744693173.127,-86.914,-34.180,0.000,-32.715,0.000
1744693173.131,-77.148,-32.715,0.000,-40.039,0.000
1744693173.135,2.930,-29.785,0.000,-37.109,0.000
1744693173.139,4.883,-27.832,-17.578,-39.551,0.000
1744693173.143,-72.754,-28.809,-28.320,-43.457,0.000
1744693173.147,-91.309,-34.668,-24.414,-45.410,0.000
1744693173.151,-16.113,-32.227,-22.461,-44.434,0.000
1744693173.155,20.996,-25.391,-21.973,-34.668,0.000
1744693173.159,-37.598,-25.879,-22.949,-30.762,0.000
1744693173.162,-88.867,-24.414,-23.926,-30.273,0.000
1744693173.166,-29.297,-20.996,-19.043,-25.879,0.000
1744693173.170,33.203,-19.043,-16.113,-19.531,0.000
1744693173.174,-10.742,-25.391,-22.461,-18.066,0.000
1744693173.178,-84.473,-33.203,-23.438,-21.484,0.000
1744693173.182,-42.969,-32.227,-16.602,-18.066,0.000
1744693173.186,41.504,-17.090,0.000,-8.789,0.000
1744693173.190,21.973,-16.602,0.000,-3.906,0.000
1744693173.194,-63.965,-31.738,0.000,-8.301,0.000
1744693173.198,-66.895,-33.203,0.000,-15.625,0.000
1744693173.202,13.184,-26.367,0.000,-13.672,0.000
1744693173.205,33.203,-16.602,0.000,-13.184,0.000
1744693173.209,-42.480,-21.484,0.000,-20.996,0.000
1744693173.213,-81.543,-36.621,0.000,-24.902,0.000
1744693173.217,-16.113,-37.109,0.000,-21.484,0.000
1744693173.221,25.879,-28.320,0.000,-24.414,0.000
1744693173.225,-34.180,-35.645,0.000,-30.273,0.000
1744693173.229,-94.727,-51.758,0.000,-35.645,0.000
1744693173.233,-43.457,-46.387,-42.480,-38.574,0.000
1744693173.237,22.461,-38.086,-39.062,-32.715,0.000
1744693173.241,-13.184,-38.086,-32.227,-26.367,0.000
1744693173.245,-90.820,-38.086,-31.250,-30.762,0.000
1744693173.248,-62.012,-33.691,-30.273,-29.785,0.000
1744693173.252,24.902,-16.602,-23.926,-26.855,0.000
1744693173.256,20.508,-17.578,-24.902,-34.180,0.000
1744693173.260,-68.359,-34.668,-32.227,-39.551,0.000
1744693173.264,-87.891,-36.133,-34.180,-39.551,0.000
1744693173.268,6.348,-29.297,-26.855,-32.227,0.000
1744693173.272,27.344,-30.762,-27.832,-23.438,0.000
1744693173.276,-51.270,-34.668,-27.832,-26.855,0.000
1744693173.280,-85.449,-40.527,-28.809,-30.762,0.000
1744693173.284,-14.160,-39.062,-30.762,-24.902,0.000
1744693173.287,39.551,-29.297,-26.367,-27.344,0.000
1744693173.291,-21.484,-28.320,-30.273,-33.691,0.000
1744693173.295,-79.102,-30.762,-38.574,-26.855,0.000
1744693173.299,-20.508,-18.555,-30.273,-15.625,0.000
1744693173.303,50.293,-14.648,-25.391,-11.230,0.000
1744693173.307,15.625,-30.273,-30.273,-15.137,0.000
1744693173.311,-63.477,-36.621,-30.273,-15.625,0.000
1744693173.315,-47.363,-37.109,-31.738,-15.625,0.000
1744693173.319,31.738,-27.344,-30.273,-15.625,0.000
1744693173.323,31.250,-21.973,-28.809,-12.207,0.000
1744693173.327,-47.852,-31.250,-28.809,-16.113,0.000
1744693173.330,-64.941,-37.109,-28.809,-22.949,0.000
1744693173.334,9.277,-24.902,-28.320,-18.555,0.000
1744693173.338,33.203,-8.301,-33.691,-13.672,0.000
1744693173.342,-43.457,-18.066,-39.062,-18.555,0.000
1744693173.346,-94.727,-27.344,-34.668,-22.461,0.000
1744693173.350,-29.785,-20.996,-29.785,-20.020,0.000
1744693173.354,23.926,-20.508,-33.203,-22.949,0.000
1744693173.358,-28.809,-21.973,-36.133,-26.855,0.000
1744693173.362,-91.309,-23.438,-34.668,-31.250,0.000
1744693173.366,-46.875,-22.949,-32.715,-27.832,0.000
1744693173.369,28.809,-12.695,-33.203,-23.926,0.000
1744693173.373,-0.488,-11.230,-38.086,-27.344,0.000
1744693173.377,-92.773,-28.320,-48.828,-36.621,0.000
1744693173.381,-76.660,-35.645,-46.387,-39.062,0.000
1744693173.385,7.324,-31.250,-33.691,-29.297,0.000
1744693173.389,4.883,-28.320,-35.156,-29.297,0.000
1744693173.393,-66.406,-22.461,-33.203,-34.180,0.000
1744693173.397,-86.426,-26.367,-33.203,-32.715,0.000
1744693173.401,-14.648,-22.949,-33.203,-31.250,0.000
1744693173.405,21.484,-12.207,-26.367,-29.297,0.000
1744693173.409,-43.945,-22.949,-32.227,-34.668,0.000
1744693173.412,-95.703,-31.250,-38.086,-41.504,0.000
1744693173.416,-36.133,-20.508,-36.621,-37.598,0.000
1744693173.420,22.949,-16.602,-36.621,-33.203,0.000
1744693173.424,-24.414,-24.414,-37.109,-34.668,0.000
1744693173.428,-93.262,-26.855,-40.039,-39.062,0.000
1744693173.432,-63.477,-26.855,-38.574,-43.945,0.000
1744693173.436,16.113,-16.113,-28.320,-34.668,0.000
1744693173.440,8.301,-11.230,-22.949,-24.414,0.000
1744693173.444,-81.055,-30.273,-31.738,-38.574,0.000
1744693173.448,-88.867,-40.527,-36.133,-44.434,0.000
1744693173.452,-2.930,-30.273,-33.691,-33.203,0.000
1744693173.455,17.090,-20.020,-31.250,-27.832,0.000
1744693173.459,-58.594,-28.320,-37.109,-31.250,0.000
1744693173.463,-87.402,-34.180,-38.574,-31.250,0.000
1744693173.467,-6.836,-24.414,-32.715,-22.461,0.000
1744693173.471,34.180,-19.531,-36.133,-23.926,0.000
1744693173.475,-30.273,-20.508,-34.180,-25.879,0.000
1744693173.479,-87.402,-23.926,-29.785,-33.691,0.000
1744693173.483,-33.203,-19.531,-31.738,-41.504,0.000
1744693173.487,28.809,-16.602,-31.738,-37.109,0.000
1744693173.491,-14.648,-22.949,-29.297,-34.668,0.000
1744693173.494,-88.867,-30.273,-33.691,-44.922,0.000
1744693173.498,-66.406,-34.180,-35.645,-48.340,0.000
1744693173.502,15.625,-20.996,-28.320,-36.133,0.000
1744693173.506,10.254,-15.137,-27.344,-32.715,0.000
1744693173.510,-76.660,-29.297,-35.156,-43.945,0.000
1744693173.514,0.000,-34.180,-38.574,-42.969,0.000
1744693173.518,0.000,-28.809,-29.297,-35.645,0.000
1744693173.522,0.000,-20.508,-22.461,-30.273,0.000
1744693173.526,0.000,-23.438,-28.809,-30.762,0.000
1744693173.530,0.000,-30.273,-36.621,-43.457,0.000
1744693173.534,0.000,-17.578,-27.344,-41.016,0.000
1744693173.537,0.000,-15.137,-20.996,-35.645,0.000
1744693173.541,0.000,-26.367,-25.391,-40.039,0.000
1744693173.545,0.000,-34.668,-28.809,-41.992,0.000
1744693173.549,0.000,-34.180,-29.297,-37.109,0.000
1744693173.553,0.000,-26.855,-24.414,-31.250,0.000
1744693173.557,0.000,-22.461,-25.391,-32.227,0.000
1744693173.561,-77.637,-25.879,-31.738,-36.133,0.000
1744693173.565,-60.547,-28.320,-33.691,-38.574,0.000
1744693173.569,23.926,-17.090,-25.879,-34.668,0.000
1744693173.573,25.879,-12.207,-23.926,-27.832,0.000
1744693173.577,-58.105,-23.438,-31.738,-32.715,0.000
1744693173.580,-73.730,-20.508,-34.668,-40.039,0.000
1744693173.584,8.789,-16.602,-31.738,-30.762,0.000
1744693173.588,39.062,-22.949,-28.320,-22.461,0.000
1744693173.592,-34.180,-25.391,-29.297,-24.902,0.000
1744693173.596,-77.637,-27.344,-29.785,-32.715,0.000
1744693173.600,-11.719,-26.367,-28.320,-29.297,0.000
1744693173.604,52.734,-21.973,-21.973,-11.230,0.000
1744693173.608,8.301,-21.484,-17.090,-7.324,0.000
1744693173.612,-71.777,-19.043,-22.949,-27.832,0.000
1744693173.616,-39.551,-21.484,-32.227,-32.715,0.000
1744693173.619,42.480,-23.926,-33.691,-10.254,0.000
1744693173.623,24.414,-22.461,-35.645,-3.906,0.000
1744693173.627,-58.105,-27.344,-41.992,-13.672,0.000
1744693173.631,-49.316,-26.855,-43.945,-11.719,0.000
1744693173.635,29.297,-24.902,-40.527,-6.836,0.000
1744693173.639,27.344,-28.320,-38.086,-10.254,0.000
1744693173.643,-41.504,-26.855,-34.668,-7.324,0.000
1744693173.647,-59.570,-29.785,-36.133,-9.277,0.000
1744693173.651,8.789,-27.832,-39.551,-19.531,0.000
1744693173.655,45.410,-22.949,-34.180,-15.137,0.000
1744693173.659,-17.090,-25.391,-34.668,-13.672,0.000
1744693173.662,-63.477,-27.344,-42.480,-18.066,0.000
1744693173.666,-2.441,-21.484,-35.156,-15.137,0.000
1744693173.670,54.199,-10.742,-30.762,-13.184,0.000
1744693173.674,8.301,-4.883,-29.785,-9.277,0.000
1744693173.678,-54.688,-13.184,-29.785,-11.230,0.000
1744693173.682,-22.461,-31.738,-34.180,-18.555,0.000
1744693173.686,36.621,-25.391,-31.738,-13.184,0.000
1744693173.690,17.090,-20.020,-31.250,-9.766,0.000
1744693173.694,-63.477,-34.180,-37.109,-19.531,0.000
1744693173.698,-66.406,-38.086,-42.480,-31.250,0.000
1744693173.702,19.531,-27.344,-38.086,-21.973,0.000
1744693173.705,35.156,-21.484,-32.715,-13.672,0.000
1744693173.709,-39.551,-22.461,-32.715,-14.160,0.000
1744693173.713,-55.176,-26.367,-34.180,-8.301,0.000
1744693173.717,25.879,-21.973,-29.785,-4.883,0.000
1744693173.721,56.641,-6.836,-21.973,-4.395,0.000
1744693173.725,-15.137,-15.137,-28.809,-9.277,0.000
1744693173.729,-80.566,-39.551,-40.039,-20.020,0.000
1744693173.733,-27.832,-29.785,-33.691,-21.973,0.000
1744693173.737,36.133,-15.137,-21.973,-14.648,0.000
1744693173.741,-3.418,-20.996,-24.414,-20.020,0.000
1744693173.744,-73.242,-21.973,-28.809,-25.879,0.000
1744693173.748,-47.852,-20.020,-29.297,-23.438,0.000
1744693173.752,24.414,-23.438,-27.832,-24.902,0.000
1744693173.756,14.160,-18.066,-21.973,-25.879,0.000
1744693173.760,-64.453,-21.484,-20.996,-28.809,0.000
1744693173.764,-73.242,-29.297,-24.414,-28.320,0.000
1744693173.768,10.742,-14.648,-21.484,-22.949,0.000
1744693173.772,20.996,-18.066,-25.391,-29.785,0.000
1744693173.776,-65.430,-32.227,-33.203,-31.738,0.000
1744693173.780,-91.797,-32.227,-28.809,-30.762,0.000
1744693173.784,-23.926,-30.762,-24.902,-35.156,0.000
1744693173.787,19.531,-25.879,-27.832,-29.297,0.000
1744693173.791,-31.250,-25.391,-22.461,-20.020,0.000
1744693173.795,0.000,-38.086,-25.391,-26.367,0.000
1744693173.799,0.000,-33.203,-25.391,-27.344,0.000
1744693173.803,0.000,-18.066,-19.043,-17.090,0.000
1744693173.807,0.000,-24.902,-20.996,-17.578,0.000
1744693173.811,0.000,-36.133,-26.855,-22.949,0.000
1744693173.815,0.000,-35.156,-30.273,-25.391,0.000
1744693173.819,0.000,-29.785,-26.855,-22.461,0.000
1744693173.823,0.000,-29.297,-30.273,-24.414,0.000
1744693173.826,0.000,-32.227,-36.133,-33.203,0.000
1744693173.830,0.000,-35.645,-34.180,-36.133,0.000
1744693173.834,0.000,-34.180,-30.273,-35.645,0.000
1744693173.838,0.000,-28.809,-26.855,-35.645,0.000
1744693173.842,-87.891,-29.785,0.000,-35.645,0.000
1744693173.846,-39.551,-30.762,0.000,-38.574,0.000
1744693173.850,25.879,-21.973,0.000,-31.738,0.000
1744693173.854,-11.230,-11.230,0.000,-23.438,0.000
1744693173.858,-88.867,-15.137,0.000,-22.949,0.000
1744693173.862,-68.848,-19.531,0.000,-27.344,0.000
1744693173.866,8.301,-17.090,0.000,-26.855,0.000
1744693173.869,-1.465,-19.531,0.000,-26.855,0.000
1744693173.873,-84.961,-22.461,0.000,-30.762,0.000
1744693173.877,-93.262,-21.484,0.000,-22.949,0.000
1744693173.881,-13.184,-17.090,0.000,-18.066,0.000
1744693173.885,12.695,-23.926,0.000,-46.875,0.000
1744693173.889,-58.105,-30.762,-39.551,-71.289,0.000
1744693173.893,-91.309,-34.180,-36.621,-65.918,0.000
1744693173.897,-22.949,-34.668,-25.391,-54.199,0.000
1744693173.901,21.484,-27.832,-22.461,-50.293,0.000
1744693173.905,-24.902,-26.855,-23.438,-47.852,0.000
1744693173.908,-80.078,-26.855,-20.508,-41.504,0.000
1744693173.912,-36.621,-29.297,-25.391,-41.992,0.000
1744693173.916,20.996,-28.320,-29.785,-41.504,0.000
1744693173.920,-6.348,-24.902,-28.320,-38.574,0.000
1744693173.924,-69.824,-33.691,-30.762,-40.039,0.000
1744693173.928,-49.316,-43.945,-31.738,-43.945,0.000
1744693173.932,-4.883,-40.039,-26.367,-46.387,0.000
1744693173.936,21.973,-20.020,0.000,0.000,0.000
1744693173.940,9.766,-13.184,0.000,0.000,0.000
1744693173.944,-78.613,-29.785,0.000,0.000,0.000
1744693173.948,-73.242,-36.621,0.000,0.000,0.000
1744693173.951,13.672,-21.484,0.000,0.000,0.000
1744693173.955,26.367,-14.648,0.000,0.000,0.000
1744693173.959,-54.688,-24.414,0.000,0.000,0.000
1744693173.963,-78.125,-38.086,0.000,0.000,0.000
1744693173.967,-1.465,-33.691,0.000,0.000,0.000
1744693173.971,27.832,-29.297,0.000,0.000,0.000
1744693173.975,-41.016,-35.156,0.000,0.000,0.000
1744693173.979,-88.867,-37.598,0.000,0.000,0.000
1744693173.983,-27.832,-34.668,-26.855,-20.508,0.000
1744693173.987,28.809,-26.367,-25.879,-14.648,0.000
1744693173.991,-11.719,-23.926,-32.227,-16.602,0.000
1744693173.994,-82.520,-31.250,-41.016,-24.414,0.000
1744693173.998,-48.828,-31.738,-35.645,-25.391,0.000
1744693174.002,32.715,-20.020,-24.414,-19.531,0.000
1744693174.006,18.066,-23.926,-26.855,-20.020,0.000
1744693174.010,-68.848,-35.156,-38.086,-26.367,0.000
1744693174.014,-70.801,-33.691,-41.016,-25.391,0.000
1744693174.018,16.113,-19.531,-29.785,-17.578,0.000
1744693174.022,28.320,-11.719,-24.902,-17.578,0.000
1744693174.026,-58.105,-23.926,-33.691,-25.879,0.000
1744693174.030,-88.379,-27.832,-42.480,-30.273,0.000
1744693174.033,-12.207,-14.648,-38.574,-26.855,0.000
1744693174.037,25.879,-11.719,-30.762,-26.367,0.000
1744693174.041,-35.156,-26.367,-36.133,-30.273,0.000
1744693174.045,-88.379,-37.109,-41.016,-38.086,0.000
1744693174.049,-39.062,-28.809,-39.062,-42.969,0.000
1744693174.053,21.973,-12.695,-34.668,-39.551,0.000
1744693174.057,-17.090,-21.484,-39.062,-40.527,0.000
1744693174.061,-91.797,-39.062,-44.922,-45.410,0.000
1744693174.065,-68.359,-39.062,-39.062,-44.922,0.000
1744693174.069,13.672,-25.879,-29.297,-36.133,0.000
1744693174.073,12.695,-15.625,-31.250,-31.738,0.000
1744693174.076,0.000,-29.785,-35.645,-38.086,0.000
1744693174.080,0.000,-36.621,-34.180,-39.551,0.000
1744693174.084,0.000,-26.367,-28.320,-35.645,0.000
1744693174.088,0.000,-28.809,-28.809,-38.086,0.000
1744693174.092,0.000,-34.668,-34.180,-42.969,0.000
1744693174.096,0.000,-29.785,-38.574,-44.434,0.000
1744693174.100,0.000,-23.926,-35.645,-33.691,0.000
1744693174.104,0.000,-24.414,-26.855,-26.855,0.000
1744693174.108,0.000,-24.414,-22.949,-29.297,0.000
1744693174.112,0.000,-33.203,-27.344,-35.156,0.000
1744693174.115,0.000,-33.691,-30.762,-33.203,0.000
1744693174.119,0.000,-20.996,-29.297,-17.090,0.000
1744693174.123,16.602,-22.949,-20.508,-7.812,0.000
1744693174.127,-61.035,-32.715,-20.508,-17.090,0.000
1744693174.131,-45.898,-33.691,-27.344,-24.414,0.000
1744693174.135,25.879,-23.926,-25.391,-17.090,0.000
1744693174.139,22.461,-23.438,-22.461,-9.277,0.000
1744693174.143,-52.734,-28.809,-24.902,-12.695,0.000
1744693174.147,-68.359,-32.715,-30.273,-16.113,0.000
1744693174.151,1.953,-30.762,-29.297,-15.625,0.000
1744693174.155,35.156,-18.066,-22.949,-11.719,0.000
1744693174.158,-35.156,-22.461,-27.832,-16.113,0.000
1744693174.162,-70.801,-24.414,-28.320,-25.391,0.000
1744693174.166,5.859,-12.207,-20.020,-13.672,0.000
1744693174.170,43.457,-15.625,-24.414,-10.254,0.000
1744693174.174,-21.973,-22.949,-25.879,-20.020,0.000
1744693174.178,-76.660,-30.762,-25.391,-24.414,0.000
1744693174.182,-23.438,-31.250,-26.367,-25.879,0.000
1744693174.186,32.715,-31.250,-26.855,-26.367,0.000
1744693174.190,-7.812,-35.645,-28.809,-28.320,0.000
1744693174.194,-80.566,-38.574,-32.227,-31.738,0.000
1744693174.198,-46.875,-33.203,-29.297,-24.414,0.000
1744693174.201,33.691,-23.438,-21.973,-17.090,0.000
1744693174.205,20.020,-28.320,-26.367,-23.438,0.000
1744693174.209,-59.570,-46.387,-34.668,-30.762,0.000
1744693174.213,-69.336,-51.270,-34.668,-26.855,0.000
1744693174.217,13.672,-33.691,-29.785,-20.020,0.000
1744693174.221,32.227,-24.902,-25.879,-10.742,0.000
1744693174.225,-36.621,-31.738,-22.461,-11.719,0.000
1744693174.229,-62.012,-32.715,-18.066,-16.602,0.000
1744693174.233,2.930,-21.973,-15.625,-11.230,0.000
1744693174.237,45.898,-17.090,-18.555,-11.719,0.000
1744693174.240,-4.395,-23.926,-25.391,-17.578,0.000
1744693174.244,-67.383,-34.668,-33.691,-25.391,0.000
1744693174.248,-17.578,-31.250,-32.227,-18.555,0.000
1744693174.252,54.688,-23.438,-25.879,-9.277,0.000
1744693174.256,10.254,-27.344,-26.855,-16.602,0.000
1744693174.260,-61.523,-36.621,-35.156,-20.020,0.000
1744693174.264,-36.133,-33.691,-38.574,-18.555,0.000
1744693174.268,37.109,-17.090,-21.973,-6.836,0.000
1744693174.272,37.109,-14.648,-12.207,1.953,0.000
1744693174.276,-43.457,-21.484,-22.949,-8.789,0.000
1744693174.280,-66.895,-26.855,-25.391,-9.277,0.000
1744693174.283,9.277,-23.438,-20.996,-3.418,0.000
1744693174.287,40.527,-15.625,-22.949,-10.254,0.000
1744693174.291,-26.855,-22.461,-27.344,-20.508,0.000
1744693174.295,-75.684,-39.062,-33.691,-22.461,0.000
1744693174.299,-11.719,-31.738,-30.273,-14.648,0.000
1744693174.303,42.969,-22.949,-27.832,-17.090,0.000
1744693174.307,-19.531,-34.668,-36.621,-27.832,0.000
1744693174.311,-88.379,-41.504,-41.504,-30.273,0.000
1744693174.315,-38.574,-33.691,-36.133,-27.832,0.000
1744693174.319,36.621,-22.461,-28.809,-24.414,0.000
1744693174.323,5.371,-20.020,-32.227,-25.879,0.000
1744693174.326,-76.172,-27.832,-34.180,-29.297,0.000
1744693174.330,-51.270,-19.043,-25.879,-24.902,0.000
1744693174.334,31.250,-5.371,-24.414,-23.438,0.000
1744693174.338,24.902,-10.254,-26.855,-24.902,0.000
1744693174.342,-53.711,-25.879,-26.855,-22.461,0.000
1744693174.346,-80.078,-35.156,-32.715,-25.879,0.000
1744693174.350,0.000,-27.344,-27.832,-17.578,0.000
1744693174.354,36.133,-23.438,-32.227,-13.672,0.000
1744693174.358,0.000,-33.691,0.000,-31.738,0.000
1744693174.362,0.000,-38.086,0.000,-36.133,0.000
1744693174.365,0.000,-24.902,0.000,-27.832,0.000
1744693174.369,0.000,-11.719,0.000,-28.809,0.000
1744693174.373,0.000,-23.438,0.000,-40.039,0.000
1744693174.377,0.000,-29.785,0.000,-42.969,0.000
1744693174.381,0.000,-21.973,0.000,-32.715,0.000
1744693174.385,0.000,-24.414,0.000,-26.367,0.000
1744693174.389,0.000,-19.531,0.000,-26.367,0.000
1744693174.393,0.000,-21.484,0.000,-34.180,0.000
1744693174.397,0.000,-31.250,0.000,-38.086,0.000
1744693174.401,0.000,-28.320,0.000,-36.133,0.000
1744693174.405,-40.039,-26.367,-33.691,-38.574,0.000
1744693174.408,-92.773,-32.715,-33.203,-41.504,0.000
1744693174.412,-23.926,-32.227,-35.645,-36.621,0.000
1744693174.416,34.180,-26.367,-35.156,-29.785,0.000
1744693174.420,-19.043,-25.391,-32.715,-26.367,0.000
1744693174.424,-86.426,-22.949,-35.645,-33.691,0.000
1744693174.428,-53.223,-26.855,-38.086,-39.062,0.000
1744693174.432,18.555,-32.227,-34.180,-31.250,0.000
1744693174.436,10.254,-28.320,-33.203,-27.344,0.000
1744693174.440,-62.500,-31.250,-39.062,-33.203,0.000
1744693174.444,-65.918,-39.062,-38.574,-35.645,0.000
1744693174.447,10.254,-32.715,-25.391,-25.879,0.000
1744693174.451,27.344,-21.484,-24.902,-22.949,0.000
1744693174.455,7.324,-19.531,-32.715,-27.344,0.000
1744693174.459,-64.453,-31.250,-36.621,-26.855,0.000
1744693174.463,-57.617,-41.016,-34.668,-23.438,0.000
1744693174.467,16.113,-32.715,-33.203,-20.996,0.000
1744693174.471,33.691,-19.043,-32.715,-20.508,0.000
1744693174.475,-36.133,-23.926,-30.273,-23.438,0.000
1744693174.479,-83.008,-41.992,-36.621,-32.715,0.000
1744693174.483,-9.277,-33.203,-37.598,-28.320,0.000
1744693174.487,36.621,-20.020,-33.203,-22.461,0.000
1744693174.490,-27.344,-27.832,-32.715,-28.809,0.000
1744693174.494,-92.285,-33.691,-37.109,-35.645,0.000
1744693174.498,-37.109,-23.438,-32.227,-26.367,0.000
1744693174.502,42.969,-14.160,-29.785,-21.973,0.000
1744693174.506,0.000,-16.113,-38.086,-33.203,0.000
1744693174.510,-86.426,-27.832,-43.945,-39.551,0.000
1744693174.514,-56.152,-21.973,-36.133,-30.762,0.000
1744693174.518,31.250,-1.953,-25.879,-20.020,0.000
1744693174.522,13.184,-7.812,-32.227,-31.250,0.000
1744693174.526,-65.430,-31.250,-40.039,-41.992,0.000
1744693174.529,-72.754,-39.062,-40.527,-40.039,0.000
1744693174.533,7.324,-28.320,-35.645,-31.738,0.000
1744693174.537,30.273,-21.973,-30.273,-29.297,0.000
1744693174.541,-35.156,-22.949,-26.855,-27.832,0.000
1744693174.545,-69.336,-25.391,-27.344,-21.973,0.000
1744693174.549,-12.695,-25.879,-25.391,-17.578,0.000
1744693174.553,31.250,-26.367,-20.508,-19.043,0.000
1744693174.557,-23.926,-28.320,-20.996,-13.672,0.000
1744693174.561,-81.543,-29.785,-23.926,-12.695,0.000
1744693174.565,-36.133,-29.785,-27.832,-12.695,0.000
1744693174.569,25.879,-31.250,-31.250,-11.719,0.000
1744693174.572,-9.277,-34.668,-28.809,-8.301,0.000
1744693174.576,-71.289,-40.527,-26.855,-4.395,0.000
1744693174.580,-49.805,-41.016,-26.855,-6.348,0.000
1744693174.584,21.973,-23.926,-19.531,-1.465,0.000
1744693174.588,26.855,-11.230,-20.508,0.000,0.000
1744693174.592,-51.758,-29.297,-23.926,-11.719,0.000
1744693174.596,-64.941,-27.832,-20.996,-11.719,0.000
1744693174.600,17.090,-9.277,-18.555,1.953,0.000
1744693174.604,42.969,-14.648,-20.020,-3.418,0.000
1744693174.608,-39.551,-26.367,-29.297,-15.137,0.000
1744693174.612,-90.820,-27.832,-32.227,-18.555,0.000
1744693174.615,-15.137,-20.996,-27.344,-16.113,0.000
1744693174.619,37.109,-18.066,-27.832,-19.043,0.000
1744693174.623,-21.973,-22.949,-30.273,-19.531,0.000
1744693174.627,-81.543,-29.785,-29.785,-19.531,0.000
1744693174.631,-48.828,-28.809,-29.297,-21.973,0.000
1744693174.635,17.090,-19.043,-29.297,-19.531,0.000
1744693174.639,-1.465,-17.578,-30.273,-17.090,0.000
1744693174.643,-82.031,-35.645,-36.621,-27.832,0.000
1744693174.647,-68.848,-32.715,-31.250,-26.367,0.000
1744693174.651,20.996,-17.090,-21.484,-20.996,0.000
1744693174.654,28.320,-20.996,-18.555,-24.902,0.000
1744693174.658,-47.363,-26.855,-27.832,-26.855,0.000
1744693174.662,-83.008,-34.180,-32.715,-37.598,0.000
1744693174.666,-29.297,-38.086,-28.809,-32.227,0.000
1744693174.670,3.906,-39.062,-32.715,-28.809,0.000
1744693174.674,-50.781,-43.457,-35.156,-35.645,0.000
1744693174.678,-95.215,-38.086,-34.180,-33.691,0.000
1744693174.682,-35.645,-30.762,-28.809,-26.367,0.000
1744693174.686,28.320,-30.762,-22.461,-21.484,0.000
1744693174.690,-20.996,-37.109,-27.344,-26.367,0.000
1744693174.694,-93.262,-38.574,-32.227,-29.785,0.000
1744693174.697,-60.059,-38.574,-23.438,-25.391,0.000
1744693174.701,16.113,-33.203,-22.949,-19.043,0.000
1744693174.705,3.418,-27.344,-26.367,-18.066,0.000
1744693174.709,-75.195,-34.668,-28.320,-25.391,0.000
1744693174.713,-71.289,-42.969,-31.738,-22.949,0.000
1744693174.717,12.695,-30.762,-20.508,-4.395,0.000
1744693174.721,17.578,-20.996,-22.949,-5.859,0.000
1744693174.725,-70.801,-34.180,-34.180,-20.508,0.000
1744693174.729,-103.516,-37.598,-32.227,-24.414,0.000
1744693174.733,-20.020,-23.438,-28.320,-23.438,0.000
1744693174.737,16.602,-26.367,-30.762,-28.320,0.000
1744693174.740,-39.062,-37.598,-33.691,-31.250,0.000
1744693174.744,-96.191,-40.527,-32.227,-33.691,0.000
1744693174.748,-48.340,-37.598,-33.691,-36.621,0.000
1744693174.752,12.695,-21.484,-34.668,-36.133,0.000
1744693174.756,-29.785,-16.602,-34.180,-37.598,0.000
1744693174.760,-103.516,-32.227,-41.992,-45.410,0.000
1744693174.764,-83.008,-36.621,-39.062,-51.758,0.000
1744693174.768,0.000,-24.414,-30.273,-43.945,0.000
1744693174.772,-13.184,-29.297,-30.273,-42.480,0.000
1744693174.776,-89.355,-41.504,-35.645,-51.758,0.000
1744693174.779,-94.238,-36.133,-31.250,-52.246,0.000
1744693174.783,-19.531,-29.785,-29.785,-52.246,0.000
1744693174.787,0.488,-23.438,-36.133,-59.082,0.000
1744693174.791,-69.824,-23.438,-36.133,-64.941,0.000
1744693174.795,-120.117,-33.203,-39.551,-69.336,0.000
1744693174.799,-52.246,-18.066,-27.832,-63.965,0.000
1744693174.803,-7.812,-16.113,-25.879,-69.336,0.000
1744693174.807,-68.359,-26.855,-28.809,-76.172,0.000
1744693174.811,-137.695,-21.973,-30.273,-90.332,0.000
1744693174.815,-115.234,-14.648,-37.598,-110.840,0.000
1744693174.819,-59.082,-14.160,-33.203,-119.629,0.000
1744693174.822,-103.027,-18.066,-34.668,-131.836,0.000
1744693174.826,-198.730,-27.344,-46.387,-151.367,0.000
1744693174.830,-188.965,-29.297,-51.270,-159.180,0.000
1744693174.834,-125.000,-26.367,-49.805,-170.410,0.000
1744693174.838,-139.160,-19.043,-54.688,-180.664,0.000
1744693174.842,-214.844,-20.020,-57.617,-182.129,0.000
1744693174.846,-225.098,-18.066,-50.781,-176.758,0.000
1744693174.850,-147.949,-2.441,-45.898,-167.969,0.000
1744693174.854,-124.023,-5.371,-41.016,-163.574,0.000
1744693174.858,-170.898,-15.625,-43.457,-161.133,0.000
1744693174.861,-202.148,-19.531,-44.922,-151.367,0.000
1744693174.865,-144.531,-17.578,-37.109,-133.789,0.000
1744693174.869,-72.266,-8.789,-31.250,-116.699,0.000
1744693174.873,-103.516,-7.812,-31.738,-108.398,0.000
1744693174.877,-155.762,-15.137,-38.574,-99.609,0.000
1744693174.881,-104.004,-20.020,-36.133,-83.496,0.000
1744693174.885,-19.531,-11.230,-25.879,-65.918,0.000
1744693174.889,-22.949,-3.906,-28.320,-58.105,0.000
1744693174.893,-84.473,-12.695,-39.551,-53.711,0.000
1744693174.897,-60.547,-16.602,-42.480,-39.062,0.000
1744693174.901,25.879,-16.602,-34.668,-26.367,0.000
1744693174.904,33.203,-15.625,-32.715,-18.555,0.000
1744693174.908,-41.016,-26.367,-38.574,-15.625,0.000
1744693174.912,-60.059,-38.574,-35.645,-9.766,0.000
1744693174.916,22.461,-28.809,-24.414,6.348,0.000
1744693174.920,65.918,-19.043,0.000,15.625,0.000
1744693174.924,7.812,-22.461,0.000,18.555,0.000
1744693174.928,-44.434,-30.762,0.000,15.625,0.000
1744693174.932,11.719,-31.738,0.000,18.066,0.000
1744693174.936,71.289,-21.973,0.000,26.855,0.000
1744693174.940,24.902,-22.461,0.000,30.762,0.000
1744693174.944,-42.480,-37.109,0.000,26.367,0.000
1744693174.947,-19.043,-45.898,0.000,20.020,0.000
1744693174.951,51.758,-34.668,0.000,24.902,0.000
1744693174.955,39.062,-32.227,0.000,26.855,0.000
1744693174.959,-30.273,-35.156,0.000,21.484,0.000
1744693174.963,-21.973,-30.762,0.000,24.414,0.000
1744693174.967,50.781,-23.926,-19.531,31.250,0.000
1744693174.971,64.941,-22.949,-21.973,30.762,0.000
1744693174.975,-7.324,-36.621,-25.879,20.996,0.000
1744693174.979,-35.156,-43.457,-27.832,16.113,0.000
1744693174.983,33.203,-36.133,-21.484,26.367,0.000
1744693174.986,75.684,-26.855,-15.625,32.227,0.000
1744693174.990,15.625,-28.809,-18.555,26.367,0.000
1744693174.994,-34.668,-37.598,-21.484,23.926,0.000
1744693174.998,27.344,-30.762,-20.020,40.039,0.000
1744693175.002,90.332,-23.926,-14.648,45.410,0.000
1744693175.006,53.223,-25.391,-20.996,29.297,0.000
1744693175.010,-15.625,-32.227,-25.391,21.973,0.000
1744693175.014,5.859,-34.180,-23.926,21.484,0.000
1744693175.018,79.102,-20.508,-21.973,28.320,0.000
1744693175.022,60.059,-17.090,-19.531,31.250,0.000
1744693175.026,-27.832,-31.738,-25.391,29.297,0.000
1744693175.029,-34.668,-41.016,-29.785,30.273,0.000
1744693175.033,42.480,-29.785,-23.926,32.715,0.000
1744693175.037,63.477,-22.949,-19.043,31.250,0.000
1744693175.041,-4.395,-32.227,-24.414,25.879,0.000
1744693175.045,-39.062,-36.621,-30.762,23.926,0.000
1744693175.049,30.762,-26.855,-24.902,26.367,0.000
1744693175.053,77.148,-16.602,-17.090,31.250,0.000
1744693175.057,18.066,-20.996,-18.555,25.879,0.000
1744693175.061,-42.969,-29.785,-22.949,17.578,0.000
1744693175.065,-4.395,-26.367,-19.531,23.438,0.000
1744693175.069,55.664,-22.461,-19.043,23.926,0.000
1744693175.072,25.391,-23.926,-20.996,13.672,0.000
1744693175.076,-46.875,-28.320,-14.648,4.395,0.000
1744693175.080,-22.949,-22.949,-9.277,13.184,0.000
1744693175.084,50.293,-16.113,-9.766,14.648,0.000
1744693175.088,32.715,-27.344,-19.531,3.418,0.000
1744693175.092,-41.992,-39.062,-27.344,3.906,0.000
1744693175.096,-46.875,-38.086,-18.555,10.254,0.000
1744693175.100,20.996,-30.762,-11.230,9.766,0.000
1744693175.104,47.363,-26.367,-12.207,10.742,0.000
1744693175.108,-5.371,-29.297,-18.066,21.484,0.000
1744693175.111,-35.156,-40.527,-16.602,30.273,0.000
1744693175.115,31.738,-37.109,-8.301,43.945,0.000
1744693175.119,81.543,-27.832,-2.930,53.711,0.000
1744693175.123,28.809,-39.551,-8.789,49.316,0.000
1744693175.127,-26.367,-41.016,-16.113,47.852,0.000
1744693175.131,21.973,-29.297,-21.484,53.711,0.000
1744693175.135,85.449,-26.855,-23.438,52.734,0.000
1744693175.139,61.035,-35.645,-19.531,44.922,0.000
1744693175.143,-17.578,-44.434,-21.484,38.086,0.000
1744693175.147,-13.184,-33.691,-22.461,39.551,0.000
1744693175.151,59.082,-23.438,-17.578,40.039,0.000
1744693175.154,53.223,-23.926,-19.043,27.832,0.000
1744693175.158,-17.090,-32.715,-21.484,15.137,0.000
1744693175.162,-33.691,-37.598,-20.996,17.578,0.000
1744693175.166,34.668,-31.250,-16.602,24.414,0.000
1744693175.170,68.848,-25.879,-17.090,24.902,0.000
1744693175.174,8.301,-18.066,-21.973,14.160,0.000
1744693175.178,-46.875,-20.508,-24.902,11.230,0.000
1744693175.182,11.719,-20.508,-20.996,20.996,0.000
1744693175.186,70.801,-14.648,-21.484,20.996,0.000
1744693175.190,22.461,-18.066,-30.273,8.301,0.000
1744693175.194,-42.480,-34.668,-31.738,2.441,0.000
1744693175.197,-11.230,-36.133,-30.762,16.602,0.000
1744693175.201,52.246,-24.902,-25.391,19.043,0.000
1744693175.205,34.180,-22.949,-28.809,12.207,0.000
1744693175.209,-41.992,-23.438,-36.133,9.277,0.000
1744693175.213,-36.133,-27.832,-21.973,10.254,0.000
1744693175.217,34.180,-22.949,-10.254,15.137,0.000
1744693175.221,38.574,-18.066,-12.695,15.625,0.000
1744693175.225,-33.203,-35.156,-30.273,4.395,0.000
1744693175.229,-72.266,-47.363,-38.086,-6.836,0.000
1744693175.233,1.953,-28.809,-30.273,2.930,0.000
1744693175.236,53.223,-17.578,-24.414,5.859,0.000
1744693175.240,-8.301,-25.879,-28.320,-8.301,0.000
1744693175.244,-51.270,-24.902,-34.668,-12.695,0.000
1744693175.248,-1.953,-21.973,-31.738,-7.812,0.000
1744693175.252,50.781,-19.043,-32.227,-9.277,0.000
1744693175.256,21.973,-18.066,-38.086,-20.020,0.000
1744693175.260,-47.852,-22.461,-39.551,-27.832,0.000
1744693175.264,-31.738,-27.832,-35.645,-29.297,0.000
1744693175.268,38.574,-19.043,-31.738,-19.531,0.000
1744693175.272,29.785,-10.742,-33.691,-23.926,0.000
1744693175.276,-46.875,-22.949,-38.086,-34.668,0.000
1744693175.279,-51.758,-34.180,-40.039,-40.527,0.000
1744693175.283,22.461,-23.926,-33.691,-32.227,0.000
1744693175.287,35.645,-13.672,-30.762,-23.438,0.000
1744693175.291,-35.156,-24.902,-33.691,-29.785,0.000
1744693175.295,-63.477,-32.227,-33.691,-21.973,0.000
1744693175.299,6.836,-13.672,-26.367,-14.160,0.000
1744693175.303,41.992,-3.418,-24.902,-23.926,0.000
1744693175.307,-19.531,-16.113,-34.668,-38.086,0.000
1744693175.311,-71.777,-23.438,-39.062,-40.039,0.000
1744693175.315,-28.809,-20.508,-34.668,-32.227,0.000
1744693175.318,30.273,-17.578,-35.645,-33.203,0.000
1744693175.322,-6.348,-22.461,-35.645,-39.551,0.000
1744693175.326,-79.590,-31.738,-30.762,-42.969,0.000
1744693175.330,-62.500,-30.273,-27.832,-34.180,0.000
1744693175.334,7.324,-19.531,-30.273,-21.973,0.000
1744693175.338,8.301,-17.090,-28.320,-21.973,0.000
1744693175.342,-50.781,-21.973,-28.809,-22.949,0.000
1744693175.346,-69.336,-27.832,-29.785,-24.414,0.000
1744693175.350,4.395,-21.973,-25.391,-17.090,0.000
1744693175.354,39.551,-13.184,-24.414,-12.695,0.000
1744693175.358,-34.180,-17.578,-31.738,-26.855,0.000
1744693175.361,-75.684,-22.949,-37.109,-34.180,0.000
1744693175.365,-14.160,-26.367,-32.715,-21.484,0.000
1744693175.369,27.832,-26.367,-31.250,-19.531,0.000
1744693175.373,-16.602,-28.809,-38.574,-33.203,0.000
1744693175.377,-73.242,-39.551,-39.551,-36.621,0.000
1744693175.381,-38.086,-40.527,-32.715,-35.156,0.000
1744693175.385,35.156,-23.926,-24.414,-24.902,0.000
1744693175.389,9.277,-21.973,-30.762,-26.855,0.000
1744693175.393,-82.520,-33.203,-37.109,-31.738,0.000
1744693175.397,-73.242,-39.551,-32.715,-24.902,0.000
1744693175.401,14.648,-29.785,-27.344,-20.996,0.000
1744693175.404,6.836,-22.949,-21.484,-20.996,0.000
1744693175.408,-64.941,-26.855,-24.414,-23.926,0.000
1744693175.412,-71.289,-24.414,-29.785,-27.344,0.000
1744693175.416,-11.230,-20.508,-27.832,-22.461,0.000
1744693175.420,14.160,-25.879,-26.367,-19.531,0.000
1744693175.424,-35.645,-36.621,-29.297,-24.414,0.000
1744693175.428,-80.566,-39.551,-27.832,-24.902,0.000
1744693175.432,-40.039,-35.156,-29.785,-27.344,0.000
1744693175.436,5.859,-34.180,-31.250,-26.367,0.000
1744693175.440,-16.602,-32.227,-28.320,-19.531,0.000
1744693175.443,-77.148,-34.180,-29.785,-19.531,0.000
1744693175.447,-47.363,-40.039,-33.691,-20.020,0.000
1744693175.451,24.902,-29.785,-35.156,-28.320,0.000
1744693175.455,11.230,-20.508,-34.668,-25.391,0.000
1744693175.459,-57.617,-34.668,-40.527,-28.320,0.000
1744693175.463,-66.406,-43.457,-39.551,-41.016,0.000
1744693175.467,8.789,-30.273,-38.574,-36.133,0.000
1744693175.471,34.668,-16.113,-37.598,-22.949,0.000
1744693175.475,-37.109,-25.391,-35.156,-25.879,0.000
1744693175.479,-74.219,-41.992,-36.133,-33.691,0.000
1744693175.483,-2.930,-35.645,-29.297,-24.414,0.000
1744693175.486,41.992,-29.297,-26.855,-14.648,0.000
1744693175.490,-20.020,-32.227,-35.156,-18.555,0.000
1744693175.494,-74.707,-36.133,-39.551,-26.367,0.000
1744693175.498,-25.391,-33.691,-33.691,-19.531,0.000
1744693175.502,39.062,-20.996,-24.414,-13.184,0.000
1744693175.506,3.418,-23.438,-23.926,-27.344,0.000
1744693175.510,-71.777,-40.527,-29.785,-33.691,0.000
1744693175.514,-44.434,-35.156,-31.738,-22.461,0.000
1744693175.518,25.391,-25.391,-30.273,-18.066,0.000
1744693175.522,15.137,-26.855,-29.785,-19.531,0.000
1744693175.525,-55.176,-35.156,-30.762,-22.949,0.000
1744693175.529,-57.129,-39.551,-27.832,-17.090,0.000
1744693175.533,11.230,-33.203,-25.391,-13.184,0.000
1744693175.537,26.367,-28.320,-21.484,-17.578,0.000
1744693175.541,-35.645,-33.691,-21.973,-19.043,0.000
1744693175.545,-68.359,-38.574,-25.879,-17.090,0.000
1744693175.549,-2.441,-28.320,-21.973,-21.484,0.000
1744693175.553,28.320,-23.438,-20.020,-31.738,0.000
1744693175.557,-30.762,-37.109,-22.949,-30.273,0.000
1744693175.561,-89.844,-48.340,-21.484,-40.527,0.000
1744693175.565,-53.223,-37.598,-20.996,-36.133,0.000
1744693175.568,17.090,-26.855,-19.531,-22.949,0.000
1744693175.572,-10.254,-32.227,-18.555,-24.902,0.000
1744693175.576,-72.754,-43.457,-27.832,-22.461,0.000
1744693175.580,-63.965,-40.527,-33.691,-29.297,0.000
1744693175.584,-5.371,-25.879,-31.250,-25.391,0.000
1744693175.588,14.648,-20.508,-25.879,-11.719,0.000
1744693175.592,-67.871,-34.180,-31.250,-28.809,0.000
1744693175.596,-116.699,-35.156,-38.086,-28.320,0.000
1744693175.600,-53.223,-23.438,-33.691,-13.672,0.000
1744693175.604,-15.137,-25.879,-30.273,-14.648,0.000
1744693175.608,-53.711,-31.738,-30.762,-13.184,0.000
1744693175.611,-98.633,-35.645,-33.203,-18.555,0.000
1744693175.615,-56.641,-29.785,-33.691,-25.879,0.000
1744693175.619,-16.113,-22.949,-31.738,-18.555,0.000
1744693175.623,0.000,-34.668,-26.367,-22.949,0.000
1744693175.627,0.000,-42.480,-25.879,-16.113,0.000
1744693175.631,0.000,-31.250,-20.996,-12.695,0.000
1744693175.635,0.000,-23.926,-13.672,-5.371,0.000
1744693175.639,0.000,-24.902,-14.160,3.418,0.000
1744693175.643,0.000,-31.738,-21.973,-10.742,0.000
1744693175.647,0.000,-31.738,-23.438,-11.719,0.000
1744693175.650,0.000,-31.250,-17.578,-6.836,0.000
1744693175.654,0.000,-34.668,-19.531,-22.461,0.000
1744693175.658,0.000,-37.109,-23.926,-31.738,0.000
1744693175.662,0.000,-40.039,-27.832,-30.273,0.000
1744693175.666,0.000,-33.203,-21.973,-30.762,0.000
1744693175.670,40.039,-28.809,0.000,-15.137,0.000
1744693175.674,-14.160,-38.086,0.000,-12.207,0.000
1744693175.678,-62.500,-41.504,0.000,-28.320,0.000
1744693175.682,4.395,-32.227,0.000,-1.465,0.000
1744693175.686,61.523,-24.414,0.000,15.625,0.000
1744693175.690,23.926,-21.973,0.000,-7.812,0.000
1744693175.693,-42.480,-32.715,0.000,-11.230,0.000
1744693175.697,-39.062,-36.133,0.000,-22.949,0.000
1744693175.701,30.762,-22.461,0.000,-40.039,0.000
1744693175.705,44.922,-19.531,0.000,-30.762,0.000
1744693175.709,-66.895,-31.250,0.000,-41.992,0.000
1744693175.713,-98.633,-28.809,0.000,-49.805,0.000
1744693175.717,0.000,-28.320,-24.902,-35.645,0.000
1744693175.721,0.000,-32.715,-24.414,-0.977,0.000
1744693175.725,0.000,-32.715,-25.879,-2.930,0.000
1744693175.729,0.000,-40.527,-27.344,-14.160,0.000
1744693175.733,0.000,-38.086,-27.344,-34.180,0.000
1744693175.736,0.000,-19.043,-30.762,-37.109,0.000
1744693175.740,0.000,-22.461,-30.273,-18.066,0.000
1744693175.744,0.000,-40.527,-24.414,-41.992,0.000
1744693175.748,0.000,-36.133,-32.227,-50.293,0.000
1744693175.752,0.000,-32.227,-34.668,-78.613,0.000
1744693175.756,0.000,-35.645,-28.320,-79.590,0.000
1744693175.760,0.000,-40.039,-30.762,-31.250,0.000
1744693175.764,-65.918,-39.062,-26.855,-18.066,0.000
1744693175.768,-21.484,-30.762,-26.855,-49.316,0.000
1744693175.772,-6.348,-19.531,-31.738,-52.734,0.000
1744693175.775,-61.035,-21.973,-27.344,-34.668,0.000
1744693175.779,-46.387,-26.367,-24.414,-11.230,0.000
1744693175.783,5.371,-18.555,-26.367,-67.871,0.000
1744693175.787,6.836,-18.066,-29.785,-69.336,0.000
1744693175.791,-30.762,-26.367,-33.691,-10.254,0.000
1744693175.795,-87.402,-29.785,-37.109,-38.574,0.000
1744693175.799,-57.617,-31.250,-28.809,-36.133,0.000
1744693175.803,23.926,-21.973,-21.973,-39.551,0.000
1744693175.807,0.977,-17.090,-23.926,-34.180,0.000
1744693175.811,-90.332,-30.273,-24.902,-39.551,0.000
1744693175.815,-54.688,-25.391,-26.855,-55.176,0.000
1744693175.818,23.438,-13.672,-18.555,-20.996,0.000
1744693175.822,-7.324,-16.602,-16.113,-19.531,0.000
1744693175.826,-90.332,-21.484,-21.484,-65.918,0.000
1744693175.830,-82.520,-22.949,-23.926,-58.105,0.000
1744693175.834,-14.648,-19.531,-24.414,-11.719,0.000
1744693175.838,-10.742,-20.508,-29.785,-25.879,0.000
1744693175.842,-94.727,-26.367,-39.062,-75.195,0.000
1744693175.846,-128.906,-29.785,-37.109,-57.617,0.000
1744693175.850,-37.598,-23.926,-29.785,-40.527,0.000
1744693175.854,10.254,-21.973,-27.344,-40.527,0.000
1744693175.858,-74.219,-30.273,-25.879,-56.152,0.000
1744693175.861,-85.449,-30.273,-36.621,-52.246,0.000
1744693175.865,-22.461,-26.855,-34.668,-3.906,0.000
1744693175.869,15.137,-20.020,-22.949,-40.527,0.000
1744693175.873,-48.340,-25.879,-32.715,-75.195,0.000
1744693175.877,-119.629,-30.273,-33.203,-66.895,0.000
1744693175.881,-55.664,-21.973,-21.973,-34.668,0.000
1744693175.885,-17.578,-22.949,-28.320,-39.551,0.000
1744693175.889,-18.555,-20.996,-24.902,-36.621,0.000
1744693175.893,-81.543,-20.020,-25.391,-39.062,0.000
1744693175.897,-75.195,-26.855,-26.855,-49.805,0.000
1744693175.900,-6.836,-20.996,-17.090,-48.340,0.000
1744693175.904,-36.133,-21.484,-23.438,-77.148,0.000
1744693175.908,-59.082,-27.832,-35.156,-43.457,0.000
1744693175.912,-66.895,-28.320,-28.809,-7.812,0.000
1744693175.916,-21.973,-23.438,-17.090,-18.066,0.000
1744693175.920,12.695,-20.508,-20.996,-31.738,0.000
1744693175.924,-44.922,-26.367,-29.785,-25.391,0.000
1744693175.928,-66.895,-24.902,-29.785,-48.340,0.000
1744693175.932,-87.891,-25.879,-25.879,-75.684,0.000
1744693175.936,-29.785,-23.926,-29.297,-47.852,0.000
1744693175.940,29.785,-24.414,-35.645,-41.504,0.000
1744693175.943,-51.758,-30.762,-27.832,-14.160,0.000
1744693175.947,-70.312,-30.762,-23.926,-21.973,0.000
1744693175.951,0.000,-28.809,-21.973,0.000,0.000
1744693175.955,0.000,-22.461,-20.508,0.000,0.000
1744693175.959,0.000,-24.902,-26.855,0.000,0.000
1744693175.963,0.000,-26.855,-28.320,0.000,0.000
1744693175.967,0.000,-18.555,-31.738,0.000,0.000
1744693175.971,0.000,-9.766,-23.438,0.000,0.000
1744693175.975,0.000,-18.555,-25.879,0.000,0.000
1744693175.979,0.000,-28.320,-36.133,0.000,0.000
1744693175.983,0.000,-23.438,-25.391,0.000,0.000
1744693175.986,0.000,-19.043,-20.996,0.000,0.000
1744693175.990,0.000,-23.926,-29.785,0.000,0.000
1744693175.994,0.000,-33.691,-27.344,0.000,0.000
1744693175.998,-63.477,-36.133,-26.367,-39.551,0.000
1744693176.002,-107.910,-24.902,-32.227,-27.832,0.000
1744693176.006,-85.449,-24.414,-23.926,-0.977,0.000
1744693176.010,-25.879,-31.738,-23.926,1.465,0.000
1744693176.014,16.602,-26.367,-33.691,-36.133,0.000
1744693176.018,46.387,-18.555,-22.949,-21.973,0.000
1744693176.022,20.020,-15.625,-20.996,6.836,0.000
1744693176.025,-54.199,-32.715,-33.203,-40.039,0.000
1744693176.029,-84.961,-35.156,-33.691,-43.945,0.000
1744693176.033,-23.438,-29.297,-29.297,-6.836,0.000
1744693176.037,5.859,-32.715,-20.996,-7.324,0.000
1744693176.041,-104.492,-29.297,-24.414,-0.488,0.000
1744693176.045,-82.031,-26.367,-28.809,-17.578,0.000
1744693176.049,-8.301,-21.484,-25.391,9.277,0.000
1744693176.053,-26.367,-22.949,-16.113,7.324,0.000
1744693176.057,-12.207,-26.855,-15.137,-9.766,0.000
1744693176.061,-42.969,-28.809,-18.555,-13.184,0.000
1744693176.065,-56.152,-27.832,-16.602,9.277,0.000
1744693176.068,7.812,-20.020,-23.926,-25.391,0.000
1744693176.072,-6.348,-22.461,-26.855,-3.418,0.000
1744693176.076,-77.148,-36.621,-30.273,-24.902,0.000
1744693176.080,-97.168,-33.203,-36.621,-41.504,0.000
1744693176.084,-32.715,-12.695,-21.484,25.879,0.000
1744693176.088,42.969,-19.043,-10.742,18.066,0.000
1744693176.092,-52.246,-37.598,0.000,0.000,0.000
1744693176.096,-72.266,-40.527,0.000,0.000,0.000
1744693176.100,17.090,-34.180,0.000,0.000,0.000
1744693176.104,42.969,-29.297,0.000,0.000,0.000
1744693176.108,-38.574,-29.297,0.000,0.000,0.000
1744693176.111,-82.520,-26.367,0.000,0.000,0.000
1744693176.115,-20.508,-23.438,0.000,0.000,0.000
1744693176.119,23.926,-19.531,0.000,0.000,0.000
1744693176.123,-25.879,-17.090,0.000,0.000,0.000
1744693176.127,-56.641,-33.691,0.000,0.000,0.000
1744693176.131,-5.859,-37.109,0.000,0.000,0.000
1744693176.135,9.277,-20.996,0.000,0.000,0.000
1744693176.139,0.000,-15.137,0.000,0.000,0.000
1744693176.143,0.000,-22.461,0.000,0.000,0.000
1744693176.147,0.000,-24.902,0.000,0.000,0.000
1744693176.150,0.000,-9.766,0.000,0.000,0.000
1744693176.154,0.000,1.465,0.000,0.000,0.000
1744693176.158,0.000,-13.184,0.000,0.000,0.000
1744693176.162,0.000,-24.414,0.000,0.000,0.000
1744693176.166,0.000,-16.113,0.000,0.000,0.000
1744693176.170,0.000,-16.113,0.000,0.000,0.000
1744693176.174,0.000,-26.367,0.000,0.000,0.000
1744693176.178,0.000,-25.879,0.000,0.000,0.000
1744693176.182,0.000,-12.207,0.000,0.000,0.000
1744693176.186,26.367,-9.277,-21.973,12.207,0.000
1744693176.190,6.348,-9.766,-25.391,-10.254,0.000
1744693176.193,-12.207,-10.254,-26.367,0.488,0.000
1744693176.197,-29.785,-18.555,-21.973,-17.578,0.000
1744693176.201,-17.578,-14.160,-23.926,-33.691,0.000
1744693176.205,21.484,4.883,-32.227,-26.367,0.000
1744693176.209,-1.953,-8.301,-25.391,-0.977,0.000
1744693176.213,-57.617,-31.250,-22.949,24.902,0.000
1744693176.217,6.836,-31.250,-34.668,-20.996,0.000
1744693176.221,28.320,-23.926,-38.574,-46.387,0.000
1744693176.225,-54.199,-23.438,-25.879,-7.324,0.000
1744693176.229,-62.012,-31.738,-24.902,-17.090,0.000
1744693176.233,21.484,-25.391,-25.391,0.000,0.000
1744693176.236,19.043,-20.020,-17.578,0.000,0.000
1744693176.240,-40.527,-31.738,-23.438,0.000,0.000
1744693176.244,-81.543,-38.086,-36.621,0.000,0.000
1744693176.248,-32.227,-26.855,-35.156,0.000,0.000
1744693176.252,51.758,-15.625,-18.555,0.000,0.000
1744693176.256,14.160,-16.113,-19.043,0.000,0.000
1744693176.260,-76.172,-19.531,-34.668,0.000,0.000
1744693176.264,-93.750,-28.320,-35.156,0.000,0.000
1744693176.268,-4.395,-9.766,-21.973,0.000,0.000
1744693176.272,14.648,-9.277,-24.902,0.000,0.000
1744693176.275,-22.461,-34.180,-34.668,0.000,0.000
1744693176.279,-36.621,-35.156,-29.297,-9.277,0.000
1744693176.283,12.695,-35.645,-30.762,6.836,0.000
1744693176.287,53.223,-29.297,-33.203,-6.348,0.000
1744693176.291,0.488,-21.973,-27.832,-21.484,0.000
1744693176.295,-50.781,-29.297,-31.738,-9.766,0.000
1744693176.299,-18.555,-22.461,-32.715,-33.203,0.000
1744693176.303,9.277,-18.066,-35.645,-64.941,0.000
1744693176.307,-6.348,-28.320,-34.180,-12.207,0.000
1744693176.311,-69.824,-28.320,-30.762,-20.996,0.000
1744693176.315,-57.617,-21.484,-34.180,-25.391,0.000
1744693176.318,-3.906,-19.531,-27.832,6.836,0.000
1744693176.322,-4.883,-17.578,-22.949,-0.488,0.000
1744693176.326,6.348,-20.996,-24.414,-1.953,0.000
1744693176.330,-31.250,-32.227,-26.367,5.371,0.000
1744693176.334,-5.371,-25.391,-25.879,-7.324,0.000
1744693176.338,37.109,-25.391,-32.227,-40.527,0.000
1744693176.342,-50.293,-30.762,-30.273,-39.062,0.000
1744693176.346,-120.605,-33.203,-20.996,-25.391,0.000
1744693176.350,-46.875,-25.391,-27.344,-18.555,0.000
1744693176.354,37.598,-16.113,-31.738,-13.672,0.000
1744693176.358,18.066,-22.949,-27.344,-4.883,0.000
1744693176.361,-46.875,-23.438,-32.715,-20.996,0.000
1744693176.365,-29.785,-22.949,-39.551,-38.574,0.000
1744693176.369,19.531,-15.137,-27.832,-23.926,0.000
1744693176.373,0.000,-13.184,-19.043,-24.902,0.000
1744693176.377,-29.297,-26.367,-20.508,-7.324,0.000
1744693176.381,-19.043,-20.996,-24.902,-30.762,0.000
1744693176.385,-4.883,-19.043,-21.973,-20.020,0.000
1744693176.389,-69.824,-29.297,-20.508,18.066,0.000
1744693176.393,-49.316,-32.715,-20.996,-16.602,0.000
1744693176.397,21.973,-25.391,-35.156,-50.293,0.000
1744693176.400,9.766,-19.043,-36.621,-56.641,0.000
1744693176.404,-7.812,-27.832,-20.020,-18.555,0.000
1744693176.408,-54.688,-33.691,-24.902,-12.207,0.000
1744693176.412,-62.012,-33.203,-25.391,-12.695,0.000
1744693176.416,7.812,-30.762,-26.367,-8.789,0.000
1744693176.420,0.000,-25.391,0.000,-34.668,0.000
1744693176.424,0.000,-32.715,0.000,-24.902,0.000
1744693176.428,0.000,-38.086,0.000,-21.973,0.000
1744693176.432,0.000,-29.297,0.000,-25.391,0.000
1744693176.436,0.000,-20.508,0.000,-32.715,0.000
1744693176.440,0.000,-17.090,0.000,-27.832,0.000
1744693176.443,0.000,-26.367,0.000,-46.875,0.000
1744693176.447,0.000,-30.273,0.000,-44.922,0.000
1744693176.451,0.000,-20.996,0.000,-10.742,0.000
1744693176.455,0.000,-23.438,0.000,-26.367,0.000
1744693176.459,0.000,-29.785,0.000,-26.855,0.000
1744693176.463,0.000,-27.832,0.000,-16.113,0.000
1744693176.467,10.254,-27.344,-27.832,-29.297,0.000
1744693176.471,24.414,-23.926,-20.996,-6.348,0.000
1744693176.475,-19.531,-26.855,-23.438,-10.254,0.000
1744693176.479,-71.777,-38.086,-33.203,-24.414,0.000
1744693176.483,-17.090,-34.180,-31.250,-34.180,0.000
1744693176.486,32.715,-20.508,-15.137,-32.227,0.000
1744693176.490,-27.832,-27.344,-20.508,-19.043,0.000
1744693176.494,-66.895,-41.992,-35.645,-10.254,0.000
1744693176.498,-24.902,-35.645,-24.414,0.977,0.000
1744693176.502,2.441,-30.762,-20.020,-12.695,0.000
1744693176.506,6.348,-31.738,-30.762,-26.855,0.000
1744693176.510,-24.902,-32.227,-33.691,-2.441,0.000
1744693176.514,-48.340,-32.715,-23.926,13.184,0.000
1744693176.518,9.277,-27.344,-21.484,-7.812,0.000
1744693176.522,1.953,-16.602,-38.086,-54.688,0.000
1744693176.525,-118.652,-28.809,-47.363,-76.172,0.000
1744693176.529,-124.512,-35.645,-40.039,-62.012,0.000
1744693176.533,-44.434,-18.555,-39.551,-70.312,0.000
1744693176.537,-41.992,-10.254,-34.180,-82.031,0.000
1744693176.541,-118.652,-23.926,-40.039,-75.195,0.000
1744693176.545,-178.711,-34.180,-55.664,-105.469,0.000
1744693176.549,-104.980,-19.043,-50.293,-102.539,0.000
1744693176.553,-52.246,-7.324,-39.551,-115.723,0.000
1744693176.557,-79.590,-11.230,-45.898,-135.742,0.000
1744693176.561,-141.602,-23.438,-52.734,-113.281,0.000
1744693176.565,-124.023,-29.785,-52.246,-101.562,0.000
1744693176.568,-31.738,-17.578,-45.410,-91.797,0.000
1744693176.572,-39.062,-10.254,-50.781,-80.566,0.000
1744693176.576,-114.746,-20.996,-57.617,-81.055,0.000
1744693176.580,-102.539,-19.043,-53.223,-79.102,0.000
1744693176.584,-45.898,-9.766,-45.410,-69.336,0.000
1744693176.588,-39.551,-10.742,-41.504,-82.520,0.000
1744693176.592,-76.172,-18.555,-44.434,-82.520,0.000
1744693176.596,-88.867,-28.809,-42.480,-72.266,0.000
1744693176.600,-58.105,-27.832,-39.062,-60.059,0.000
1744693176.604,-1.465,-19.531,-34.668,-21.484,0.000
1744693176.607,-32.715,-17.090,-36.621,-29.785,0.000
1744693176.611,-96.191,-16.602,-37.598,-28.320,0.000
1744693176.615,-30.762,-17.578,-37.598,-23.926,0.000
1744693176.619,14.648,-17.578,-42.480,-35.645,0.000
1744693176.623,-19.531,-22.949,-41.504,-45.898,0.000
1744693176.627,-78.125,-23.438,-33.203,-37.598,0.000
1744693176.631,-41.992,-23.926,-33.203,-44.434,0.000
1744693176.635,11.230,-28.320,-30.762,-48.340,0.000
1744693176.639,-4.883,-23.438,-29.785,-25.391,0.000
1744693176.643,-69.824,-29.785,-35.156,-31.250,0.000
1744693176.647,-81.055,-30.273,-39.062,-46.387,0.000
1744693176.650,-26.367,-17.090,-30.273,-18.555,0.000
1744693176.654,-3.906,-16.113,-19.531,-25.879,0.000
1744693176.658,-59.082,-28.320,-28.320,-37.598,0.000
1744693176.662,-84.961,-31.250,-30.762,-23.926,0.000
1744693176.666,-9.277,-18.555,-26.367,-38.574,0.000
1744693176.670,25.879,-20.020,-31.738,-34.180,0.000
1744693176.674,-46.875,-23.438,-27.832,-27.344,0.000
1744693176.678,-96.191,-26.855,-36.133,-24.902,0.000
1744693176.682,-29.297,-31.250,-36.133,-22.461,0.000
1744693176.686,29.785,-26.855,-28.320,-17.090,0.000
1744693176.690,3.906,-31.738,-27.344,-16.602,0.000
1744693176.693,-78.125,-38.086,-33.203,-27.832,0.000
1744693176.697,-74.219,-32.715,-31.738,-20.508,0.000
1744693176.701,6.836,-19.531,-26.367,-31.250,0.000
1744693176.705,-26.367,-16.113,-19.531,-9.766,0.000
1744693176.709,-93.262,-28.320,-21.973,0.977,0.000
1744693176.713,-46.387,-34.180,-35.156,-16.602,0.000
1744693176.717,1.953,-29.785,-31.738,-23.926,0.000
1744693176.721,-1.465,-15.137,-27.344,-28.320,0.000
1744693176.725,-48.828,-12.695,-26.855,-24.414,0.000
1744693176.729,-57.617,-32.715,-33.691,-21.973,0.000
1744693176.732,-19.043,-40.527,-38.574,-22.461,0.000
1744693176.736,22.461,-31.250,-35.645,-23.926,0.000
1744693176.740,-19.531,-26.855,-31.250,-28.809,0.000
1744693176.744,-90.820,-35.156,-34.180,-45.410,0.000
1744693176.748,-28.809,-31.250,-37.598,-41.016,0.000
1744693176.752,47.852,-18.555,-30.762,-29.297,0.000
1744693176.756,9.277,-19.043,-30.273,-34.668,0.000
1744693176.760,-75.195,-31.738,-43.945,-48.340,0.000
1744693176.764,-78.613,-38.574,-42.969,-48.828,0.000
1744693176.768,-5.859,-28.320,-30.762,-29.785,0.000
1744693176.772,28.320,-25.391,-26.855,-18.066,0.000
1744693176.775,-34.668,-27.832,-37.109,-39.062,0.000
1744693176.779,-83.008,-32.715,-37.109,-36.133,0.000
1744693176.783,-1.953,-30.762,-25.391,-26.367,0.000
1744693176.787,36.133,-26.367,-26.855,-11.230,0.000
1744693176.791,-26.855,-32.715,-30.273,-7.324,0.000
1744693176.795,-55.664,-38.574,-26.367,-38.086,0.000
1744693176.799,-25.391,-32.227,-27.832,-39.062,0.000
1744693176.803,16.113,-25.879,-30.273,-15.625,0.000
1744693176.807,-22.949,-30.273,-36.621,-16.602,0.000
1744693176.811,-74.707,-32.715,-38.574,-6.836,0.000
1744693176.815,-38.086,-28.320,-27.832,-26.367,0.000
1744693176.818,20.508,-21.484,-27.832,-19.043,0.000
1744693176.822,4.883,-21.973,-25.391,-15.625,0.000
1744693176.826,-62.988,-32.715,-33.203,-42.480,0.000
1744693176.830,-52.246,-35.645,-41.992,-34.180,0.000
1744693176.834,9.277,-22.461,-30.762,-14.160,0.000
1744693176.838,21.973,-8.789,-27.344,-15.137,0.000
1744693176.842,-43.457,-13.184,-34.668,-42.480,0.000
1744693176.846,-52.246,-24.902,-35.156,-44.922,0.000
1744693176.850,4.883,-27.832,-32.715,-15.625,0.000
1744693176.854,17.578,-27.344,-36.133,-21.973,0.000
1744693176.857,-28.809,-31.250,-39.062,-28.320,0.000
1744693176.861,-60.547,-30.273,-38.574,-9.277,0.000
1744693176.865,-8.789,-21.973,-36.133,-11.719,0.000
1744693176.869,27.344,-23.926,-35.156,-2.441,0.000
1744693176.873,-31.738,-35.156,-34.668,-16.602,0.000
1744693176.877,-64.941,-40.527,-40.527,-47.852,0.000
1744693176.881,-30.273,-31.738,-32.227,-19.043,0.000
1744693176.885,15.137,-17.578,-25.879,-3.418,0.000
1744693176.889,0.000,-19.531,0.000,-18.066,0.000
1744693176.893,0.000,-32.715,0.000,-16.602,0.000
1744693176.897,0.000,-38.086,0.000,-34.668,0.000
1744693176.900,0.000,-29.297,0.000,-22.949,0.000
1744693176.904,0.000,-22.949,0.000,-14.160,0.000
1744693176.908,0.000,-24.902,0.000,-21.973,0.000
1744693176.912,0.000,-28.320,0.000,-35.645,0.000
1744693176.916,0.000,-25.391,0.000,-30.762,0.000
1744693176.920,0.000,-19.531,0.000,-12.695,0.000
1744693176.924,0.000,-24.902,0.000,-43.457,0.000
1744693176.928,0.000,-35.156,0.000,-39.062,0.000
1744693176.932,0.000,-30.273,0.000,-29.297,0.000
1744693176.936,30.762,-24.414,-24.414,-32.227,0.000
1744693176.939,-19.043,-27.344,-28.320,-38.086,0.000
1744693176.943,-85.938,-28.809,-27.832,-39.062,0.000
1744693176.947,-61.523,-26.367,-29.297,-36.621,0.000
1744693176.951,7.324,-19.531,-26.855,-37.109,0.000
1744693176.955,-0.977,-19.043,-27.832,-28.320,0.000
1744693176.959,-66.406,-29.297,-34.668,-41.504,0.000
1744693176.963,-76.660,-36.621,-34.180,-49.805,0.000
1744693176.967,-12.695,-27.832,-32.715,-38.574,0.000
1744693176.971,14.648,-18.066,-28.320,-31.738,0.000
1744693176.975,-48.828,-23.438,-27.832,-33.691,0.000
1744693176.979,-83.984,-32.715,-32.227,-46.387,0.000
1744693176.982,-46.875,-27.832,-28.320,-36.133,0.000
1744693176.986,-1.465,-22.461,-22.461,-27.832,0.000
1744693176.990,-21.484,-28.809,-26.855,-30.762,0.000
