timestamps,TP9,AF7,AF8,TP10,Right AUX
1743627889.766,0.000,-36.621,-39.062,17.578,0.000
1743627889.770,0.000,-31.250,-35.645,22.461,0.000
1743627889.773,0.000,-23.438,-40.039,30.762,0.000
1743627889.777,0.000,-28.320,-40.039,26.855,0.000
1743627889.781,0.000,-35.156,-38.086,26.855,0.000
1743627889.785,0.000,-31.250,-42.969,30.273,0.000
1743627889.789,0.000,-31.250,-39.062,33.691,0.000
1743627889.793,0.000,-39.551,-40.527,29.297,0.000
1743627889.797,0.000,-37.598,-40.039,32.227,0.000
1743627889.801,0.000,-31.250,-36.621,35.156,0.000
1743627889.805,0.000,-27.832,-32.715,34.180,0.000
1743627889.809,0.000,-27.344,-30.762,27.832,0.000
1743627889.809,0.000,-27.344,-30.762,27.832,0.000
1743627889.813,9.766,-31.738,-35.645,17.090,0.000
1743627889.816,8.301,-30.762,-32.227,27.832,0.000
1743627889.820,21.484,-27.832,-37.109,31.250,0.000
1743627889.824,24.902,-28.320,-38.086,28.320,0.000
1743627889.828,22.949,-25.391,-30.762,24.902,0.000
1743627889.832,30.273,-20.996,-32.227,26.367,0.000
1743627889.836,31.250,-24.414,-37.598,28.320,0.000
1743627889.840,31.250,-27.344,-37.109,31.250,0.000
1743627889.844,28.320,-13.184,-34.668,27.832,0.000
1743627889.848,27.832,-10.742,-33.691,22.949,0.000
1743627889.852,23.438,-28.320,-39.062,26.855,0.000
1743627889.855,13.184,-27.832,-35.645,22.949,0.000
1743627889.859,12.207,-23.438,-32.715,21.973,0.000
1743627889.863,11.230,-20.996,-36.133,19.531,0.000
1743627889.867,6.348,-24.902,-32.227,10.742,0.000
1743627889.871,0.488,-27.832,-29.785,9.277,0.000
1743627889.875,2.930,-25.879,-31.250,5.859,0.000
1743627889.879,1.953,-25.879,-35.645,1.953,0.000
1743627889.883,1.953,-29.785,-39.062,6.348,0.000
1743627889.887,7.812,-34.180,-37.109,2.441,0.000
1743627889.891,-0.488,-29.785,-35.156,-4.883,0.000
1743627889.895,-0.488,-33.691,-31.738,-5.371,0.000
1743627889.898,0.488,-36.621,-30.762,-3.906,0.000
1743627889.902,-8.301,-30.762,-42.480,1.953,0.000
1743627889.906,-8.789,-28.320,-38.086,2.930,0.000
1743627889.910,-15.137,-23.438,-36.621,-1.465,0.000
1743627889.914,-9.277,-25.391,-41.504,1.465,0.000
1743627889.918,-4.395,-27.832,-36.621,-0.488,0.000
1743627889.922,-16.113,-34.180,-35.156,0.977,0.000
1743627889.926,-20.508,-40.039,-35.645,-4.395,0.000
1743627889.930,-13.672,-37.598,-37.109,-11.719,0.000
1743627889.934,-16.602,-21.484,-42.480,-9.277,0.000
1743627889.937,-18.555,-19.043,-39.062,-17.578,0.000
1743627889.941,-3.906,-33.691,-38.574,-18.066,0.000
1743627889.945,-5.859,-29.785,-38.086,-18.555,0.000
1743627889.949,-13.184,-31.250,-38.086,-13.672,0.000
1743627889.953,-17.090,-40.039,-35.645,-6.348,0.000
1743627889.957,-17.578,-36.133,-29.785,-5.371,0.000
1743627889.961,-15.137,-31.250,-30.762,-9.766,0.000
1743627889.965,-15.137,-34.180,-34.668,-12.695,0.000
1743627889.969,-23.438,-32.227,-37.598,-16.602,0.000
1743627889.973,-33.691,-29.785,-35.645,-21.973,0.000
1743627889.977,-31.250,-29.785,-37.109,-17.578,0.000
1743627889.980,-28.320,-29.297,-38.086,-11.230,0.000
1743627889.984,-33.203,-31.738,-31.738,-12.695,0.000
1743627889.988,-32.715,-34.180,-31.250,-13.672,0.000
1743627889.992,-28.809,-33.203,-35.156,-17.578,0.000
1743627889.996,-33.691,-26.855,-38.574,-19.043,0.000
1743627890.000,-26.855,-28.320,-34.668,-14.648,0.000
1743627890.004,-15.137,-32.227,-31.250,-11.719,0.000
1743627890.008,-16.113,-31.738,-32.227,-13.672,0.000
1743627890.012,-11.230,-26.855,-30.273,-17.090,0.000
1743627890.016,-8.789,-21.973,-38.574,-22.949,0.000
1743627890.020,-17.578,-24.414,-40.527,-24.414,0.000
1743627890.023,-29.297,-25.879,-45.410,-29.785,0.000
1743627890.027,-39.551,-15.625,-50.293,-34.180,0.000
1743627890.031,-31.250,-19.531,-44.434,-29.297,0.000
1743627890.035,-25.879,-33.691,-41.504,-28.809,0.000
1743627890.039,-31.738,-33.691,-41.016,-28.809,0.000
1743627890.043,-22.461,-27.344,-33.203,-24.902,0.000
1743627890.047,-19.531,-25.391,-30.273,-26.367,0.000
1743627890.051,-29.785,-30.273,-35.645,-23.926,0.000
1743627890.055,-29.297,-28.809,-39.062,-28.809,0.000
1743627890.059,-27.832,-28.320,-32.227,-30.273,0.000
1743627890.063,-33.691,-29.297,-39.062,-26.367,0.000
1743627890.066,-35.645,-26.855,-40.527,-23.438,0.000
1743627890.070,-28.320,-30.762,-34.668,-17.578,0.000
1743627890.074,-10.742,-27.344,-48.340,-19.043,0.000
1743627890.078,-4.883,-27.832,-39.551,-15.137,0.000
1743627890.082,-33.691,-35.645,-21.973,-30.762,0.000
1743627890.086,-62.012,-41.016,-20.996,-51.270,0.000
1743627890.090,-55.176,-40.527,-20.996,-41.992,0.000
1743627890.094,-58.594,-46.875,-17.578,-47.852,0.000
1743627890.098,-67.871,-54.199,-14.160,-62.012,0.000
1743627890.102,-66.895,-49.805,-8.301,-50.293,0.000
1743627890.105,-82.520,-52.246,-7.324,-53.223,0.000
1743627890.109,-85.938,-56.641,-8.789,-56.152,0.000
1743627890.113,-82.031,-50.781,-6.836,-53.711,0.000
1743627890.117,-77.637,-43.457,-11.719,-57.129,0.000
1743627890.121,-76.172,-54.688,-13.184,-64.453,0.000
1743627890.125,-77.148,-57.617,-14.648,-62.988,0.000
1743627890.129,-73.242,-49.805,-16.602,-51.270,0.000
1743627890.133,-62.988,-45.410,-16.113,-46.387,0.000
1743627890.137,-55.176,-46.875,-13.672,-41.992,0.000
1743627890.141,-55.176,-50.293,-16.113,-41.016,0.000
1743627890.145,-53.711,-49.805,-15.625,-37.109,0.000
1743627890.148,-52.734,-51.270,-11.719,-36.621,0.000
1743627890.152,-48.340,-45.898,-20.996,-36.621,0.000
1743627890.156,-49.805,-41.504,-19.531,-30.273,0.000
1743627890.160,-52.246,-39.551,-16.602,-28.320,0.000
1743627890.164,-44.922,-40.039,-19.043,-33.203,0.000
1743627890.168,-41.992,-45.898,-23.926,-33.691,0.000
1743627890.172,-44.434,-39.551,-20.996,-36.621,0.000
1743627890.176,-37.598,-34.180,-23.438,-33.691,0.000
1743627890.180,-32.715,-39.062,-21.484,-32.227,0.000
1743627890.184,-36.621,-38.574,-25.879,-32.715,0.000
1743627890.188,-39.551,-38.086,-34.180,-27.832,0.000
1743627890.191,-41.992,-39.062,-24.414,-28.809,0.000
1743627890.195,-39.062,-36.133,-20.996,-30.762,0.000
1743627890.199,-34.668,-32.715,-19.531,-25.879,0.000
1743627890.203,-37.598,-32.227,-17.578,-14.648,0.000
1743627890.207,-36.621,-28.320,-18.066,-13.672,0.000
1743627890.211,-29.297,-27.832,-24.902,-20.508,0.000
1743627890.215,-35.156,-35.156,-30.273,-29.785,0.000
1743627890.219,-44.434,-33.691,-28.320,-32.227,0.000
1743627890.223,-39.062,-29.297,-26.855,-28.809,0.000
1743627890.226,-36.621,-30.762,-28.809,-22.949,0.000
1743627890.230,-42.480,-34.668,-30.273,-29.297,0.000
1743627890.234,-46.387,-30.762,-27.832,-36.621,0.000
1743627890.238,-43.945,-32.715,-26.367,-36.133,0.000
1743627890.242,-41.504,-37.109,-23.438,-39.062,0.000
1743627890.246,-38.086,-34.668,-19.043,-37.109,0.000
1743627890.250,-35.156,-33.691,-20.508,-29.297,0.000
1743627890.254,-32.715,-26.367,-20.508,-27.344,0.000
1743627890.258,-37.109,-26.855,-24.414,-31.250,0.000
1743627890.262,-36.621,-42.969,-24.902,-30.762,0.000
1743627890.266,-26.855,-28.809,-24.902,-28.809,0.000
1743627890.269,-34.180,-7.324,-31.738,-36.133,0.000
1743627890.273,-44.434,-26.367,-36.621,-37.598,0.000
1743627890.277,-41.016,-32.715,-41.992,-31.738,0.000
1743627890.281,-32.715,-25.391,-38.574,-20.020,0.000
1743627890.285,-22.949,-19.043,-36.133,-14.648,0.000
1743627890.289,-18.555,-19.531,-36.621,-20.508,0.000
1743627890.293,-22.949,-26.855,-29.785,-28.320,0.000
1743627890.297,-25.879,-28.809,-34.180,-27.832,0.000
1743627890.301,-20.996,-27.344,-43.457,-25.879,0.000
1743627890.305,-17.578,-29.785,-40.527,-27.344,0.000
1743627890.309,-22.461,-34.668,-36.621,-24.414,0.000
1743627890.312,-25.879,-41.016,-36.621,-21.484,0.000
1743627890.316,-22.461,-41.992,-40.527,-26.855,0.000
1743627890.320,-24.414,-38.086,-41.992,-25.879,0.000
1743627890.324,-25.879,-38.574,-34.180,-15.137,0.000
1743627890.328,-23.926,-38.574,-36.621,-20.996,0.000
1743627890.332,-29.297,-41.016,-41.016,-29.785,0.000
1743627890.336,-32.715,-42.480,-42.480,-26.855,0.000
1743627890.340,-26.367,-41.016,-35.645,-29.297,0.000
1743627890.344,-26.367,-39.551,-26.855,-31.738,0.000
1743627890.348,-28.809,-30.273,-34.668,-26.855,0.000
1743627890.352,-35.645,-33.691,-41.016,-32.227,0.000
1743627890.355,-36.621,-37.598,-38.574,-28.809,0.000
1743627890.359,-25.391,-26.367,-34.668,-23.438,0.000
1743627890.363,-23.438,-25.391,-33.203,-23.926,0.000
1743627890.367,-22.461,-32.227,-31.738,-12.207,0.000
1743627890.371,-23.438,-30.762,-31.738,-10.254,0.000
1743627890.375,-27.344,-28.320,-29.297,-14.160,0.000
1743627890.379,-27.832,-23.438,-27.832,-12.207,0.000
1743627890.383,-25.391,-24.902,-25.879,-17.578,0.000
1743627890.387,-28.809,-26.855,-25.391,-24.902,0.000
1743627890.391,-25.879,-24.902,-30.273,-24.902,0.000
1743627890.394,-20.996,-22.949,-28.809,-24.902,0.000
1743627890.398,-21.973,-7.324,-29.785,-22.461,0.000
1743627890.402,-17.090,-13.184,-24.902,-22.461,0.000
1743627890.406,-19.531,-34.668,-22.949,-23.438,0.000
1743627890.410,-28.809,-27.832,-26.367,-22.949,0.000
1743627890.414,-29.785,-21.484,-28.320,-27.344,0.000
1743627890.418,-35.645,-14.648,-31.250,-50.293,0.000
1743627890.422,-43.945,-14.648,-28.320,-50.781,0.000
1743627890.426,-46.387,-24.414,-32.227,-35.645,0.000
1743627890.430,-45.898,-21.484,-32.715,-41.016,0.000
1743627890.434,-51.270,-18.555,-28.320,-49.316,0.000
1743627890.437,-53.711,-22.461,-39.551,-60.547,0.000
1743627890.441,-51.758,-19.531,-44.922,-62.012,0.000
1743627890.445,-51.758,-16.602,-32.227,-57.129,0.000
1743627890.449,-49.316,-18.066,-28.809,-52.734,0.000
1743627890.453,-52.734,-20.020,-27.344,-51.758,0.000
1743627890.457,-59.570,-20.508,-25.391,-53.711,0.000
1743627890.461,-62.988,-20.020,-31.250,-60.547,0.000
1743627890.465,-54.688,-25.391,-25.879,-59.570,0.000
1743627890.469,-52.246,-33.691,-17.578,-57.617,0.000
1743627890.473,-53.223,-31.738,-19.043,-52.246,0.000
1743627890.477,-51.270,-24.902,-20.508,-45.898,0.000
1743627890.480,-52.734,-28.809,-18.555,-50.781,0.000
1743627890.484,-46.387,-26.367,-19.531,-46.875,0.000
1743627890.488,-41.504,-19.043,-20.020,-40.527,0.000
1743627890.492,-47.852,-20.508,-20.020,-55.176,0.000
1743627890.496,-53.223,-24.902,-16.113,-59.082,0.000
1743627890.500,-60.547,-30.762,-13.672,-61.523,0.000
1743627890.504,-64.453,-24.902,-20.020,-66.406,0.000
1743627890.508,-72.266,-17.578,-5.371,-71.777,0.000
1743627890.512,-95.215,-26.855,5.371,-94.238,0.000
1743627890.516,0.000,-33.203,0.000,-113.770,0.000
1743627890.520,0.000,-34.668,0.000,-109.863,0.000
1743627890.523,0.000,-31.738,0.000,-111.328,0.000
1743627890.527,0.000,-31.250,0.000,-122.070,0.000
1743627890.531,0.000,-39.551,0.000,-122.559,0.000
1743627890.535,0.000,-35.156,0.000,-133.301,0.000
1743627890.539,0.000,-25.879,0.000,-141.602,0.000
1743627890.543,0.000,-30.762,0.000,-142.578,0.000
1743627890.547,0.000,-34.180,0.000,-137.695,0.000
1743627890.551,0.000,-30.762,0.000,-128.418,0.000
1743627890.555,0.000,-34.668,0.000,-123.535,0.000
1743627890.558,0.000,-39.062,0.000,-120.117,0.000
1743627890.562,-126.953,-34.180,-27.832,-113.770,0.000
1743627890.566,-107.422,-25.879,-22.949,-107.910,0.000
1743627890.570,-99.609,-22.949,-17.090,-104.492,0.000
1743627890.574,-91.309,-24.902,-19.531,-95.703,0.000
1743627890.578,-80.078,-25.879,-28.809,-87.402,0.000
1743627890.582,-75.195,-24.902,-28.320,-77.148,0.000
1743627890.586,-68.359,-26.855,-32.715,-63.477,0.000
1743627890.590,-58.105,-30.273,-35.645,-51.270,0.000
1743627890.594,-54.688,-34.180,-29.785,-45.410,0.000
1743627890.598,-48.828,-33.691,-28.809,-40.039,0.000
1743627890.601,-37.598,-31.738,-29.785,-38.574,0.000
1743627890.605,-34.668,-34.668,-31.738,-40.527,0.000
1743627890.609,-21.484,-31.250,-41.992,-22.949,0.000
1743627890.613,-6.836,-23.926,-44.434,-11.230,0.000
1743627890.617,0.488,-19.531,-40.527,-5.859,0.000
1743627890.621,1.465,-23.438,-49.805,1.953,0.000
1743627890.625,4.883,-28.809,-44.922,5.371,0.000
1743627890.629,8.789,-26.855,-42.969,0.977,0.000
1743627890.633,7.324,-27.344,-57.617,-5.371,0.000
1743627890.637,5.371,-35.156,-55.664,5.859,0.000
1743627890.641,10.254,-26.855,-45.410,19.043,0.000
1743627890.644,10.254,-16.602,-43.457,18.066,0.000
1743627890.648,13.184,-23.926,-41.504,20.508,0.000
1743627890.652,21.484,-25.879,-39.062,25.391,0.000
1743627890.656,19.043,-23.438,-36.621,24.414,0.000
1743627890.660,8.301,-25.391,-41.504,22.461,0.000
1743627890.664,8.789,-18.066,-43.945,22.461,0.000
1743627890.668,16.602,-13.672,-39.551,22.461,0.000
1743627890.672,12.207,-19.043,-43.945,18.555,0.000
1743627890.676,12.695,-16.113,-40.039,20.996,0.000
1743627890.680,12.695,-14.648,-38.574,22.949,0.000
1743627890.684,6.836,-24.902,-47.363,13.672,0.000
1743627890.687,13.672,-24.902,-46.387,15.137,0.000
1743627890.691,21.484,-20.996,-42.969,22.461,0.000
1743627890.695,16.113,-22.461,-41.504,16.602,0.000
1743627890.699,17.090,-20.020,-38.086,17.090,0.000
1743627890.703,0.000,-20.508,-41.016,16.602,0.000
1743627890.707,0.000,-24.902,-41.992,14.160,0.000
1743627890.711,0.000,-27.344,-40.039,17.578,0.000
1743627890.715,0.000,-25.391,-35.645,24.414,0.000
1743627890.719,0.000,-24.414,-24.902,29.297,0.000
1743627890.723,0.000,-23.438,-22.949,26.855,0.000
1743627890.726,0.000,-24.414,-35.645,26.367,0.000
1743627890.730,0.000,-25.391,-35.156,24.414,0.000
1743627890.734,0.000,-26.855,-29.785,25.879,0.000
1743627890.738,0.000,-31.250,-34.668,27.832,0.000
1743627890.742,0.000,-30.273,-37.598,18.066,0.000
1743627890.746,0.000,-25.391,-36.133,17.090,0.000
1743627890.750,23.926,-24.414,-38.086,20.020,0.000
1743627890.754,19.043,-23.926,-34.180,20.508,0.000
1743627890.758,20.508,-22.461,-29.785,21.973,0.000
1743627890.762,12.695,-24.414,-31.250,11.230,0.000
1743627890.766,8.789,-23.438,-29.297,5.371,0.000
1743627890.769,3.906,-23.926,-27.832,3.418,0.000
1743627890.773,-4.883,-26.855,-28.809,-0.977,0.000
1743627890.777,-8.301,-31.250,-25.391,0.488,0.000
1743627890.781,-7.812,-32.715,-21.484,8.301,0.000
1743627890.785,-6.836,-29.785,-23.926,9.766,0.000
1743627890.789,-5.371,-32.227,-15.625,1.953,0.000
1743627890.793,-5.859,-34.668,-19.531,-1.465,0.000
1743627890.797,-5.859,-30.273,-27.832,1.465,0.000
1743627890.801,-6.348,-29.785,-22.949,0.488,0.000
1743627890.805,-9.766,-35.645,-25.391,-2.441,0.000
1743627890.809,-7.812,-33.691,-26.367,0.977,0.000
1743627890.812,-6.348,-31.738,-26.367,0.488,0.000
1743627890.816,-4.883,-31.738,-26.367,0.977,0.000
1743627890.820,-5.371,-33.691,-30.762,4.395,0.000
1743627890.824,-5.371,-39.062,-32.227,2.441,0.000
1743627890.828,-4.395,-37.598,-24.414,-4.395,0.000
1743627890.832,1.465,-32.715,-19.531,-4.395,0.000
1743627890.836,9.277,-25.391,-22.949,0.488,0.000
1743627890.840,0.977,-22.949,-23.438,-1.953,0.000
1743627890.844,-7.324,-24.414,-24.414,-11.230,0.000
1743627890.848,-3.906,-21.484,-24.414,-13.672,0.000
1743627890.851,2.930,-19.531,-21.484,-10.254,0.000
1743627890.855,3.418,-18.555,-20.020,-11.230,0.000
1743627890.859,-0.488,-19.531,-22.949,-10.742,0.000
1743627890.863,-5.371,-18.066,-22.461,-12.695,0.000
1743627890.867,-10.254,-20.996,-20.508,-6.348,0.000
1743627890.871,-13.184,-34.180,-21.973,-4.395,0.000
1743627890.875,-14.160,-23.926,-22.949,-12.207,0.000
1743627890.879,-18.066,-6.348,-26.367,-14.160,0.000
1743627890.883,-18.066,-28.320,-30.273,-15.137,0.000
1743627890.887,-15.137,-34.180,-25.391,-13.672,0.000
1743627890.891,-15.625,-22.949,-20.508,-13.184,0.000
1743627890.894,-21.973,-20.508,-22.949,-12.207,0.000
1743627890.898,-16.113,-14.648,-24.902,-7.812,0.000
1743627890.902,-3.418,-12.695,-23.438,-6.348,0.000
1743627890.906,-10.254,-19.043,-22.949,-9.277,0.000
1743627890.910,-15.625,-20.508,-29.785,-15.137,0.000
1743627890.914,-13.184,-18.066,-33.691,-19.531,0.000
1743627890.918,-13.672,-22.949,-33.691,-18.066,0.000
1743627890.922,-14.160,-28.809,-36.621,-22.461,0.000
1743627890.926,-8.301,-24.414,-30.273,-24.902,0.000
1743627890.930,-3.906,-19.043,-27.344,-22.949,0.000
1743627890.933,-10.742,-22.949,-27.344,-25.391,0.000
1743627890.937,-14.648,-24.902,-26.367,-31.738,0.000
1743627890.941,-15.137,-29.785,-35.156,-31.738,0.000
1743627890.945,-19.043,-33.691,-32.715,-31.738,0.000
1743627890.949,-16.113,-28.320,-29.785,-31.738,0.000
1743627890.953,-10.254,-22.949,-31.738,-24.414,0.000
1743627890.957,-14.160,-18.066,-32.715,-22.949,0.000
1743627890.961,-21.973,-20.996,-33.691,-18.555,0.000
1743627890.965,-23.926,-26.367,-29.785,-12.207,0.000
1743627890.969,-20.020,-24.902,-29.785,-16.602,0.000
1743627890.973,-17.090,-29.297,-35.156,-25.879,0.000
1743627890.976,-16.113,-31.738,-29.297,-20.996,0.000
1743627890.980,-17.090,-27.344,-30.273,-16.602,0.000
1743627890.984,-4.883,-19.043,-37.109,-10.742,0.000
1743627890.988,-0.977,-22.461,-30.273,-5.859,0.000
1743627890.992,-31.738,-30.762,-18.555,-27.344,0.000
1743627890.996,-49.316,-31.250,-16.113,-42.480,0.000
1743627891.000,-44.434,-34.180,-18.066,-41.992,0.000
1743627891.004,-42.969,-31.250,-13.184,-47.852,0.000
1743627891.008,-55.176,-35.156,-15.625,-53.223,0.000
1743627891.012,-52.734,-40.039,-20.020,-48.340,0.000
1743627891.015,-40.039,-34.668,-17.578,-45.410,0.000
1743627891.019,-41.016,-33.203,-16.602,-41.504,0.000
1743627891.023,-37.598,-30.762,-20.508,-37.598,0.000
1743627891.027,-32.227,-26.367,-20.508,-37.598,0.000
1743627891.031,-31.250,-27.832,-24.414,-27.832,0.000
1743627891.035,-27.832,-35.156,-25.879,-23.926,0.000
1743627891.039,-16.602,-28.320,-23.438,-23.926,0.000
1743627891.043,-7.812,-24.902,-19.531,-17.090,0.000
1743627891.047,-5.859,-26.367,-17.578,-15.137,0.000
1743627891.051,-6.836,-19.531,-21.973,-5.371,0.000
1743627891.055,-12.207,-23.438,-22.461,-2.441,0.000
1743627891.058,-15.625,-27.832,-28.320,-9.766,0.000
1743627891.062,-10.742,-22.949,-32.715,-3.418,0.000
1743627891.066,-0.488,-19.531,-28.320,6.348,0.000
1743627891.070,4.883,-16.113,-29.785,3.906,0.000
1743627891.074,8.789,-12.207,-39.062,1.465,0.000
1743627891.078,0.000,-16.602,-36.621,4.395,0.000
1743627891.082,0.000,-21.484,-37.109,-0.488,0.000
1743627891.086,0.000,-16.113,-31.250,-8.789,0.000
1743627891.090,0.000,-17.090,-27.344,-6.836,0.000
1743627891.094,0.000,-27.832,-36.133,-13.184,0.000
1743627891.098,0.000,-27.832,-35.645,-19.531,0.000
1743627891.101,0.000,-21.484,-33.203,-17.090,0.000
1743627891.105,0.000,-26.855,-30.273,-16.602,0.000
1743627891.109,0.000,-27.344,-27.832,-10.254,0.000
1743627891.113,0.000,-22.461,-28.320,-20.020,0.000
1743627891.117,0.000,-27.344,-24.414,-29.785,0.000
1743627891.121,0.000,-24.414,-14.648,-20.508,0.000
1743627891.125,-18.555,-21.484,-16.113,-28.320,0.000
1743627891.129,-28.809,-29.785,-17.090,-31.738,0.000
1743627891.133,-37.598,-29.297,-20.508,-36.621,0.000
1743627891.137,-44.922,-26.855,-19.531,-49.805,0.000
1743627891.141,-43.457,-25.879,-10.254,-52.246,0.000
1743627891.144,-51.758,-27.832,-4.883,-61.035,0.000
1743627891.148,-69.824,-36.621,-7.812,-77.637,0.000
1743627891.152,-73.730,-36.133,-15.137,-85.938,0.000
1743627891.156,-77.637,-38.086,-14.160,-98.145,0.000
1743627891.160,-96.680,-39.551,-8.789,-111.328,0.000
1743627891.164,-124.023,-40.527,-6.348,-127.930,0.000
1743627891.168,-139.160,-41.504,-8.789,-146.484,0.000
1743627891.172,-133.301,-35.156,0.000,-148.926,0.000
1743627891.176,-139.648,-31.250,0.000,-152.832,0.000
1743627891.180,-144.531,-32.715,0.000,-160.156,0.000
1743627891.183,-135.742,-29.297,0.000,-154.297,0.000
1743627891.187,-133.789,-27.832,0.000,-150.879,0.000
1743627891.191,-123.047,-20.508,0.000,-139.160,0.000
1743627891.195,-106.934,-16.602,0.000,-127.441,0.000
1743627891.199,-101.074,-25.879,0.000,-125.000,0.000
1743627891.203,-95.703,-9.766,0.000,-120.605,0.000
1743627891.207,-79.102,-9.766,0.000,-107.422,0.000
1743627891.211,-65.430,-24.902,0.000,-95.215,0.000
1743627891.215,-56.152,-17.578,0.000,-88.379,0.000
1743627891.219,-46.387,-21.973,-31.738,-80.566,0.000
1743627891.223,-34.668,-19.043,-34.180,-60.547,0.000
1743627891.226,-22.461,-18.066,-38.086,-49.316,0.000
1743627891.230,-12.695,-23.438,-45.898,-48.340,0.000
1743627891.234,0.488,-20.996,-44.434,-26.855,0.000
1743627891.238,1.465,-17.090,-30.762,-16.602,0.000
1743627891.242,1.465,-16.113,-34.180,-16.602,0.000
1743627891.246,1.465,-20.020,-45.898,-4.395,0.000
1743627891.250,4.883,-22.461,-44.434,2.441,0.000
1743627891.254,12.207,-11.719,-40.039,11.719,0.000
1743627891.258,18.066,-5.859,-39.551,15.625,0.000
1743627891.262,23.438,-12.695,-46.387,7.324,0.000
1743627891.266,24.902,-11.719,-48.340,9.277,0.000
1743627891.269,19.531,-17.090,-47.363,11.719,0.000
1743627891.273,25.391,-20.020,-46.387,11.230,0.000
1743627891.277,32.227,-15.137,-46.875,10.742,0.000
1743627891.281,35.156,-13.672,-45.410,19.531,0.000
1743627891.285,41.992,-17.578,-45.410,21.484,0.000
1743627891.289,36.621,-22.949,-46.875,13.184,0.000
1743627891.293,30.762,-25.391,-46.875,9.277,0.000
1743627891.297,30.762,-20.508,-43.457,11.230,0.000
1743627891.301,20.020,-16.602,-41.016,8.301,0.000
1743627891.305,9.766,-20.508,-49.316,-1.465,0.000
1743627891.308,9.277,-20.020,-47.363,3.906,0.000
1743627891.312,7.812,-17.090,-40.527,8.301,0.000
1743627891.316,5.371,-21.973,-43.457,3.418,0.000
1743627891.320,1.465,-26.855,-49.316,-0.488,0.000
1743627891.324,-0.488,-23.926,-48.340,-2.441,0.000
1743627891.328,-0.488,-22.461,-44.434,0.000,0.000
1743627891.332,2.930,-17.578,-41.992,3.906,0.000
1743627891.336,0.000,-18.066,-45.410,4.883,0.000
1743627891.340,-12.207,-30.273,-50.293,0.488,0.000
1743627891.344,-13.672,-36.621,-51.270,6.348,0.000
1743627891.347,-5.859,-31.250,-48.828,13.672,0.000
1743627891.351,0.000,-35.645,-46.875,9.277,0.000
1743627891.355,5.859,-37.109,-47.852,1.953,0.000
1743627891.359,0.488,-33.691,-48.828,-10.254,0.000
1743627891.363,-4.883,-32.227,-45.410,-3.418,0.000
1743627891.367,14.160,-18.555,-39.062,15.625,0.000
1743627891.371,19.043,-20.996,-39.062,15.137,0.000
1743627891.375,15.625,-30.273,-33.203,16.602,0.000
1743627891.379,18.555,-23.438,-30.762,15.137,0.000
1743627891.383,12.695,-17.578,-34.180,10.742,0.000
1743627891.387,6.348,-20.508,-29.297,13.672,0.000
1743627891.390,3.906,-24.414,-26.855,12.207,0.000
1743627891.394,-4.395,-31.250,-28.320,12.695,0.000
1743627891.398,-10.254,-30.762,-20.020,13.184,0.000
1743627891.402,-4.883,-24.414,-18.555,9.277,0.000
1743627891.406,0.000,-26.855,-24.414,9.277,0.000
1743627891.410,0.000,-30.273,-18.066,4.395,0.000
1743627891.414,0.000,-26.367,-13.672,4.395,0.000
1743627891.418,0.000,-24.902,-21.973,2.441,0.000
1743627891.422,0.000,-31.250,-28.809,-7.324,0.000
1743627891.426,0.000,-32.715,-26.367,-5.859,0.000
1743627891.430,0.000,-26.855,-24.902,-4.883,0.000
1743627891.433,0.000,-29.297,-34.180,-9.277,0.000
1743627891.437,0.000,-36.133,-40.527,-12.207,0.000
1743627891.441,0.000,-32.715,-32.227,-4.883,0.000
1743627891.445,0.000,-29.297,-22.461,4.395,0.000
1743627891.449,0.000,-33.203,-21.973,1.465,0.000
1743627891.453,-11.230,-32.715,-22.949,-4.395,0.000
1743627891.457,-13.672,-32.715,-22.461,-4.883,0.000
1743627891.461,-6.836,-31.250,-21.484,-2.930,0.000
1743627891.465,-0.488,-29.297,-20.996,-5.371,0.000
1743627891.469,-0.488,-22.949,-18.066,1.953,0.000
1743627891.472,-2.441,-19.043,-14.648,5.859,0.000
1743627891.476,0.488,-22.461,-14.160,3.906,0.000
1743627891.480,4.395,-19.531,-14.160,-2.441,0.000
1743627891.484,3.418,-17.090,-13.184,-6.348,0.000
1743627891.488,-2.930,-21.973,-13.672,-4.883,0.000
1743627891.492,-3.418,-21.973,-16.113,-9.766,0.000
1743627891.496,0.000,-22.949,-16.113,-11.230,0.000
1743627891.500,-9.766,-23.926,-20.020,-13.184,0.000
1743627891.504,-20.996,-10.742,-23.926,-22.461,0.000
1743627891.508,-26.855,-22.461,-22.949,-20.508,0.000
1743627891.512,-31.250,-32.227,-21.973,-20.996,0.000
1743627891.515,-33.203,-24.902,-24.414,-34.180,0.000
1743627891.519,-31.250,-25.879,-24.414,-34.668,0.000
1743627891.523,-30.762,-23.926,-22.949,-31.250,0.000
1743627891.527,-34.668,-30.273,-24.414,-40.039,0.000
1743627891.531,-37.109,-29.785,-30.273,-40.527,0.000
1743627891.535,-34.668,-21.484,-29.297,-31.738,0.000
1743627891.539,-34.180,-17.090,-28.809,-33.691,0.000
1743627891.543,-45.410,-20.020,-33.691,-34.668,0.000
1743627891.547,-46.875,-21.484,0.000,-35.156,0.000
1743627891.551,-43.457,-24.902,0.000,-34.180,0.000
1743627891.555,-44.922,-35.156,0.000,-34.668,0.000
1743627891.558,-40.039,-38.574,0.000,-33.691,0.000
1743627891.562,-43.457,-40.527,0.000,-36.621,0.000
1743627891.566,-42.480,-32.227,0.000,-33.691,0.000
1743627891.570,-29.785,-22.949,0.000,-26.855,0.000
1743627891.574,-25.391,-26.367,0.000,-23.438,0.000
1743627891.578,-34.668,-33.691,0.000,-25.879,0.000
1743627891.582,-46.387,-36.133,0.000,-33.203,0.000
1743627891.586,-40.527,-33.203,0.000,-33.691,0.000
1743627891.590,-34.180,-31.738,0.000,-29.297,0.000
1743627891.594,-37.598,-25.879,-26.855,-28.320,0.000
1743627891.598,-31.250,-27.344,-29.297,-32.715,0.000
1743627891.601,-23.926,-33.691,-29.297,-27.832,0.000
1743627891.605,-18.555,-31.250,-31.250,-29.785,0.000
1743627891.609,-15.137,-24.902,-31.738,-34.668,0.000
1743627891.613,-23.926,-21.973,-32.715,-27.344,0.000
1743627891.617,-32.227,-27.832,-38.574,-30.273,0.000
1743627891.621,-29.785,-30.273,-38.574,-28.809,0.000
1743627891.625,-25.391,-26.855,-39.062,-27.832,0.000
1743627891.629,-19.531,-23.438,-37.109,-30.762,0.000
1743627891.633,-21.484,-26.367,-35.156,-32.227,0.000
1743627891.636,-23.438,-17.578,-34.668,-32.715,0.000
1743627891.640,-24.902,-6.836,-38.086,-30.273,0.000
1743627891.644,-24.414,-26.855,-39.551,-30.273,0.000
1743627891.648,-23.438,-33.203,-37.598,-29.785,0.000
1743627891.652,-32.227,-27.344,-43.457,-30.762,0.000
1743627891.656,-43.945,-26.367,-44.922,-32.715,0.000
1743627891.660,-42.969,-23.926,-36.621,-28.320,0.000
1743627891.664,-41.016,-28.809,-35.156,-29.785,0.000
1743627891.668,-44.434,-30.273,-41.016,-32.715,0.000
1743627891.672,-41.504,-28.320,-42.480,-31.738,0.000
1743627891.676,-41.016,-32.227,-39.062,-34.668,0.000
1743627891.679,-41.992,-30.762,-39.062,-29.785,0.000
1743627891.683,-47.852,-30.762,-39.551,-29.297,0.000
1743627891.687,-46.387,-31.738,-41.016,-35.156,0.000
1743627891.691,-41.504,-29.785,-41.504,-32.715,0.000
1743627891.695,-33.691,-26.367,-41.504,-34.180,0.000
1743627891.699,-28.809,-26.855,-38.574,-31.738,0.000
1743627891.703,-30.762,-32.227,-34.180,-27.344,0.000
1743627891.707,-39.551,-35.645,-36.621,-34.668,0.000
1743627891.711,-41.992,-29.785,-39.551,-37.598,0.000
1743627891.715,-29.785,-31.250,-36.133,-34.668,0.000
1743627891.719,-34.668,-39.551,-36.621,-41.016,0.000
1743627891.722,-40.039,-35.645,-41.016,-45.410,0.000
1743627891.726,-38.574,-30.273,-38.086,-40.527,0.000
1743627891.730,-36.133,-29.297,-33.203,-33.691,0.000
1743627891.734,-38.574,-31.250,-28.809,-30.273,0.000
1743627891.738,-46.875,-31.250,-29.297,-28.320,0.000
1743627891.742,-45.410,-31.738,-34.668,-32.715,0.000
1743627891.746,-39.551,-29.785,-36.133,-36.621,0.000
1743627891.750,-35.156,-27.344,-34.180,-32.715,0.000
1743627891.754,-31.738,-30.273,-30.273,-32.715,0.000
1743627891.758,-29.297,-27.832,-33.203,-32.227,0.000
1743627891.762,-26.855,-15.137,-39.551,-38.086,0.000
1743627891.765,-30.762,-29.785,-33.691,-40.527,0.000
1743627891.769,-35.645,-49.316,-31.250,-34.668,0.000
1743627891.773,-33.203,-40.527,-36.133,-29.297,0.000
1743627891.777,-39.062,-41.992,-34.668,-27.832,0.000
1743627891.781,-43.457,-41.504,-31.738,-26.855,0.000
1743627891.785,-40.039,-33.691,-31.738,-31.250,0.000
1743627891.789,-33.203,-32.715,-33.203,-30.273,0.000
1743627891.793,-26.855,-30.273,-32.227,-27.832,0.000
1743627891.797,-28.320,-25.391,-33.691,-39.551,0.000
1743627891.801,-28.320,-27.832,-35.156,-30.762,0.000
1743627891.804,-24.902,-34.180,-33.691,-21.484,0.000
1743627891.808,-32.227,-31.250,-37.598,-32.227,0.000
1743627891.812,-45.410,-29.297,-40.527,-41.992,0.000
1743627891.816,-47.852,-35.156,-44.922,-43.457,0.000
1743627891.820,-38.574,-31.250,-45.410,-34.180,0.000
1743627891.824,-41.016,-28.809,-45.410,-35.156,0.000
1743627891.828,-48.828,-38.574,-47.363,-45.410,0.000
1743627891.832,-48.828,-40.039,-41.992,-44.434,0.000
1743627891.836,-53.711,-34.180,-36.133,-39.551,0.000
1743627891.840,-52.246,-35.156,-35.645,-31.250,0.000
1743627891.844,-47.852,-33.203,-34.180,-28.320,0.000
1743627891.847,-41.016,-26.855,-35.645,-36.621,0.000
1743627891.851,-40.039,-30.273,-35.645,-40.039,0.000
1743627891.855,-39.062,-35.156,-37.598,-37.109,0.000
1743627891.859,-34.668,-34.180,-39.551,-34.668,0.000
1743627891.863,-41.016,-22.949,-42.480,-41.016,0.000
1743627891.867,-41.992,-16.113,-44.922,-42.969,0.000
1743627891.871,-36.621,-32.715,-41.504,-38.574,0.000
1743627891.875,-39.062,-37.598,-43.945,-39.062,0.000
1743627891.879,-41.992,-28.320,-46.875,-35.156,0.000
1743627891.883,-36.133,-19.043,-41.992,-35.156,0.000
1743627891.887,-30.762,-19.043,-40.527,-37.109,0.000
1743627891.890,-32.715,-23.438,-42.969,-34.180,0.000
1743627891.894,-32.227,-21.484,-43.457,-30.273,0.000
1743627891.898,-25.879,-24.414,-40.039,-38.086,0.000
1743627891.902,-25.879,-35.156,-38.086,-39.551,0.000
1743627891.906,-31.250,-37.109,-40.039,-29.297,0.000
1743627891.910,-22.461,-31.250,-41.016,-28.809,0.000
1743627891.914,-18.066,-27.832,-39.062,-30.762,0.000
1743627891.918,-29.297,-30.762,-37.109,-27.344,0.000
1743627891.922,-36.621,-29.785,-38.086,-25.879,0.000
1743627891.926,-33.691,-28.320,-38.574,-26.367,0.000
1743627891.930,-27.832,-26.855,-35.156,-25.391,0.000
1743627891.933,-32.715,-30.273,-35.645,-28.809,0.000
1743627891.937,-41.992,-15.625,-42.480,-40.039,0.000
1743627891.941,-40.039,-16.602,-41.504,-40.039,0.000
1743627891.945,-38.574,-41.016,-36.621,-37.598,0.000
1743627891.949,-37.598,-35.156,-40.039,-41.016,0.000
1743627891.953,-35.645,-30.273,-36.621,-39.062,0.000
1743627891.957,-39.551,-32.715,-40.039,-45.898,0.000
1743627891.961,-36.621,-25.879,-41.016,-44.922,0.000
1743627891.965,-34.180,-23.926,-38.086,-38.086,0.000
1743627891.969,-32.715,-24.902,-40.039,-40.527,0.000
1743627891.972,-33.203,-24.902,-44.922,-43.457,0.000
1743627891.976,-31.250,-28.320,-45.898,-39.551,0.000
1743627891.980,-24.414,-26.855,-42.969,-37.109,0.000
1743627891.984,-25.879,-28.320,-42.969,-35.156,0.000
1743627891.988,-24.414,-27.832,-40.527,-32.227,0.000
1743627891.992,-13.672,-28.320,-39.062,-36.133,0.000
1743627891.996,-10.254,-34.180,-39.551,-36.621,0.000
1743627892.000,-19.531,-33.691,-39.551,-37.598,0.000
1743627892.004,-27.344,-29.785,-41.016,-35.645,0.000
1743627892.008,-26.855,-27.344,-39.551,-32.715,0.000
1743627892.011,-28.320,-7.812,-41.504,-34.180,0.000
1743627892.015,-32.715,-22.949,0.000,-29.297,0.000
1743627892.019,-35.156,-45.410,0.000,-30.273,0.000
1743627892.023,-34.668,-38.086,0.000,-28.809,0.000
1743627892.027,-38.574,-37.109,0.000,-31.250,0.000
1743627892.031,-35.156,-37.598,0.000,-34.668,0.000
1743627892.035,-26.855,-32.715,0.000,-29.297,0.000
1743627892.039,-22.949,-27.344,0.000,-26.367,0.000
1743627892.043,-20.508,-25.391,0.000,-25.391,0.000
1743627892.047,-17.578,-27.344,0.000,-30.273,0.000
1743627892.051,-15.625,-27.344,0.000,-35.156,0.000
1743627892.054,-19.043,-25.879,0.000,-30.273,0.000
1743627892.058,-22.949,-29.297,0.000,-30.762,0.000
1743627892.062,-25.391,-25.391,-32.715,-29.297,0.000
1743627892.066,-24.902,-22.461,-30.762,-25.879,0.000
1743627892.070,-25.879,-20.996,-34.180,-25.879,0.000
1743627892.074,-30.762,-23.438,-38.086,-30.273,0.000
1743627892.078,-34.668,-28.809,-41.016,-31.738,0.000
1743627892.082,-29.297,-20.020,-38.574,-28.809,0.000
1743627892.086,-26.855,-25.391,-39.551,-37.109,0.000
1743627892.090,-32.227,-31.250,-39.062,-34.180,0.000
1743627892.094,-30.273,-28.809,-35.645,-29.297,0.000
1743627892.097,-28.320,-30.273,-37.598,-31.738,0.000
1743627892.101,-26.855,-29.785,-39.062,-33.691,0.000
1743627892.105,-21.973,-23.438,-36.133,-32.227,0.000
1743627892.109,-8.301,-15.625,-33.691,-21.973,0.000
1743627892.113,-11.719,-25.879,-40.039,-22.949,0.000
1743627892.117,-29.297,-15.625,-43.945,-37.598,0.000
1743627892.121,-28.320,-12.207,-33.203,-36.621,0.000
1743627892.125,-21.484,-33.691,-25.391,-28.809,0.000
1743627892.129,-21.973,-21.484,-25.391,-34.668,0.000
1743627892.133,-21.973,-28.320,-27.832,-39.551,0.000
1743627892.136,-20.508,-40.527,-32.715,-38.574,0.000
1743627892.140,-21.484,-37.109,-30.762,-36.133,0.000
1743627892.144,-23.438,-34.180,-27.832,-31.250,0.000
1743627892.148,-16.113,-28.809,-31.250,-28.320,0.000
1743627892.152,-13.672,-24.902,-33.691,-27.344,0.000
1743627892.156,-15.137,-20.020,-34.668,-25.879,0.000
1743627892.160,-21.484,-16.113,-36.621,-27.344,0.000
1743627892.164,-31.250,-9.766,-36.133,-19.043,0.000
1743627892.168,-30.273,-14.648,-38.086,-17.578,0.000
1743627892.172,-29.297,-27.344,-41.992,-21.973,0.000
1743627892.176,-31.250,-23.438,-40.527,-23.438,0.000
1743627892.179,-27.832,-19.531,-35.156,-22.949,0.000
1743627892.183,-25.879,-21.973,-33.203,-21.484,0.000
1743627892.187,-26.855,-21.484,-33.203,-23.926,0.000
1743627892.191,-26.367,-18.555,-30.762,-23.438,0.000
1743627892.195,-30.273,-24.902,-32.227,-24.414,0.000
1743627892.199,-35.156,-26.367,-33.203,-26.855,0.000
1743627892.203,-36.621,-27.832,0.000,-20.508,0.000
1743627892.207,-39.062,-20.020,0.000,-24.902,0.000
1743627892.211,-36.133,-27.832,0.000,-30.273,0.000
1743627892.215,-31.250,-49.316,0.000,-31.250,0.000
1743627892.219,-34.668,-40.039,0.000,-34.668,0.000
1743627892.222,-36.621,-33.691,0.000,-27.832,0.000
1743627892.226,-30.273,-31.250,0.000,-24.902,0.000
1743627892.230,-23.438,-30.273,0.000,-20.020,0.000
1743627892.234,-18.555,-22.949,0.000,-19.043,0.000
1743627892.238,-14.648,-20.996,0.000,-26.367,0.000
1743627892.242,-16.602,-24.902,0.000,-26.367,0.000
1743627892.246,-20.996,-24.902,0.000,-30.273,0.000
1743627892.250,-24.902,-24.414,-33.691,-30.273,0.000
1743627892.254,-27.344,-24.902,-34.668,-23.438,0.000
1743627892.258,-27.832,-27.344,-30.762,-22.461,0.000
1743627892.262,-28.809,-28.320,-28.320,-18.555,0.000
1743627892.265,-29.297,-31.738,-29.785,-20.996,0.000
1743627892.269,-23.926,-28.809,-23.438,-16.113,0.000
1743627892.273,-21.973,-25.391,-25.391,-10.742,0.000
1743627892.277,-22.461,-30.273,-32.227,-14.648,0.000
1743627892.281,-25.879,-33.691,-31.250,-18.066,0.000
1743627892.285,-26.367,-35.645,-32.227,-26.855,0.000
1743627892.289,-23.438,-39.062,-32.227,-26.855,0.000
1743627892.293,-26.855,-40.527,-29.785,-25.391,0.000
1743627892.297,-28.809,-35.156,-30.273,-32.715,0.000
1743627892.301,-26.855,-33.203,-32.227,-29.785,0.000
1743627892.304,-24.902,-36.133,-33.203,-31.738,0.000
1743627892.308,-23.438,-32.715,-33.203,-35.156,0.000
1743627892.312,-24.414,-30.273,-32.715,-30.273,0.000
1743627892.316,-20.508,-21.484,-28.809,-28.320,0.000
1743627892.320,-15.625,-19.531,-25.879,-29.297,0.000
1743627892.324,-14.160,-29.297,-29.785,-26.855,0.000
1743627892.328,-16.602,-26.855,-34.180,-22.461,0.000
1743627892.332,-19.531,-31.738,-32.227,-23.926,0.000
1743627892.336,-24.414,-25.391,-31.738,-26.855,0.000
1743627892.340,-27.832,-17.090,-29.297,-26.855,0.000
1743627892.344,-22.949,-41.504,-29.785,-27.344,0.000
1743627892.347,-20.020,-46.387,-30.273,-29.785,0.000
1743627892.351,-21.973,-39.062,-30.273,-28.320,0.000
1743627892.355,-20.020,-36.621,-28.809,-26.367,0.000
1743627892.359,-16.602,-31.738,-24.902,-23.926,0.000
1743627892.363,-20.996,-29.785,-26.367,-25.879,0.000
1743627892.367,-21.973,-31.250,-31.250,-27.832,0.000
1743627892.371,-19.043,-35.156,-34.180,-29.297,0.000
1743627892.375,-20.508,-32.715,-28.809,-25.391,0.000
1743627892.379,-20.020,-31.250,-27.832,-21.484,0.000
1743627892.383,-18.555,-31.250,-33.203,-22.949,0.000
1743627892.386,-21.973,-32.227,-38.086,-23.926,0.000
1743627892.390,0.000,-32.715,-39.551,-27.832,0.000
1743627892.394,0.000,-32.227,-34.180,-29.297,0.000
1743627892.398,0.000,-38.574,-28.809,-29.785,0.000
1743627892.402,0.000,-40.039,-30.762,-35.156,0.000
1743627892.406,0.000,-38.086,-32.715,-34.668,0.000
1743627892.410,0.000,-28.320,-30.762,-35.645,0.000
1743627892.414,0.000,-27.344,-33.691,-43.457,0.000
1743627892.418,0.000,-32.227,-27.832,-37.598,0.000
1743627892.422,0.000,-29.297,-23.438,-28.320,0.000
1743627892.425,0.000,-28.809,-24.414,-28.809,0.000
1743627892.429,0.000,-30.273,-23.926,-31.250,0.000
1743627892.433,0.000,-30.273,-23.438,-28.320,0.000
1743627892.437,-26.367,-24.414,-22.461,-23.926,0.000
1743627892.441,-24.902,-23.438,-17.578,-24.902,0.000
1743627892.445,-26.367,-22.949,-15.137,-26.855,0.000
1743627892.449,-27.344,-20.020,-17.090,-24.414,0.000
1743627892.453,-26.367,-22.461,-23.438,-23.926,0.000
1743627892.457,-28.809,-21.973,-27.344,-26.855,0.000
1743627892.461,-32.715,-13.672,-23.926,-30.273,0.000
1743627892.465,-29.785,-29.785,-24.414,-29.785,0.000
1743627892.468,-29.297,-45.410,-28.320,-32.715,0.000
1743627892.472,-30.273,-38.086,-31.250,-33.691,0.000
1743627892.476,-27.832,-36.133,-26.855,-28.320,0.000
1743627892.480,-24.902,-35.645,-23.438,-27.344,0.000
1743627892.484,-33.691,-34.668,-29.785,-28.809,0.000
1743627892.488,-31.250,-33.691,-34.180,-28.320,0.000
1743627892.492,-30.762,-31.738,-34.180,-28.320,0.000
1743627892.496,-27.832,-31.250,-30.273,-27.832,0.000
1743627892.500,-25.879,-28.320,-23.438,-25.391,0.000
1743627892.504,-26.367,-24.902,-22.461,-23.926,0.000
1743627892.508,-21.484,-24.902,-22.949,-23.438,0.000
1743627892.511,-19.531,-31.738,-22.949,-27.344,0.000
1743627892.515,-22.461,-31.738,-24.902,-23.926,0.000
1743627892.519,-24.414,-31.250,-27.832,-25.879,0.000
1743627892.523,-20.996,-35.645,-30.273,-34.180,0.000
1743627892.527,-23.438,-28.809,-29.297,-32.715,0.000
1743627892.531,-26.367,-20.996,-21.973,-26.855,0.000
1743627892.535,-23.926,-20.020,-20.508,-24.414,0.000
1743627892.539,-23.926,-24.414,-25.879,-33.691,0.000
1743627892.543,-24.414,-23.438,-24.902,-30.762,0.000
1743627892.547,-21.484,-19.531,-20.020,-20.508,0.000
1743627892.551,-20.508,-16.113,-19.043,-27.832,0.000
1743627892.554,-28.320,-18.066,-22.949,-26.855,0.000
1743627892.558,-34.180,-24.902,-24.902,-26.855,0.000
1743627892.562,-36.133,-22.949,-24.902,-28.809,0.000
1743627892.566,-39.062,-26.855,-31.738,-31.738,0.000
1743627892.570,-32.227,-31.738,-31.250,-34.180,0.000
1743627892.574,-23.438,-32.715,-27.344,-28.320,0.000
1743627892.578,0.000,-25.391,-26.855,-28.320,0.000
1743627892.582,0.000,-7.812,-24.902,-27.832,0.000
1743627892.586,0.000,-18.066,-20.508,-24.414,0.000
1743627892.590,0.000,-32.227,-20.508,-21.484,0.000
1743627892.593,0.000,-25.879,-24.902,-20.508,0.000
1743627892.597,0.000,-17.578,-21.484,-17.090,0.000
1743627892.601,0.000,-23.926,-23.926,-14.160,0.000
1743627892.605,0.000,-24.902,-24.414,-15.137,0.000
1743627892.609,0.000,-20.996,-19.531,-17.578,0.000
1743627892.613,0.000,-21.484,-19.531,-18.555,0.000
1743627892.617,0.000,-16.113,-19.043,-19.531,0.000
1743627892.621,0.000,-20.020,-22.461,-25.391,0.000
1743627892.625,-32.227,-28.809,-27.344,-28.320,0.000
1743627892.629,-28.320,-27.344,-31.250,-24.902,0.000
1743627892.633,-22.949,-28.809,-27.832,-27.832,0.000
1743627892.636,-21.973,-26.367,-20.996,-27.344,0.000
1743627892.640,-17.578,-20.996,-22.949,-26.367,0.000
1743627892.644,-14.648,-20.996,-22.949,-28.809,0.000
1743627892.648,-20.996,-24.902,-21.484,-26.855,0.000
1743627892.652,-35.645,-29.297,-23.926,-30.273,0.000
1743627892.656,-39.062,-28.320,-21.973,-27.832,0.000
1743627892.660,-45.898,-31.250,-19.531,-22.949,0.000
1743627892.664,-47.852,-30.762,-18.555,-26.367,0.000
1743627892.668,-41.504,-27.832,-18.066,-25.879,0.000
1743627892.672,-40.039,-30.273,-20.020,-25.391,0.000
1743627892.676,-37.598,-35.645,-16.113,-28.320,0.000
1743627892.679,-43.457,-23.438,-20.508,-32.715,0.000
1743627892.683,-39.062,-20.508,-17.578,-29.785,0.000
1743627892.687,-31.250,-36.133,-11.719,-20.508,0.000
1743627892.691,-25.879,-28.320,-15.137,-23.438,0.000
1743627892.695,-22.461,-23.926,-19.531,-22.461,0.000
1743627892.699,-29.785,-30.273,-23.438,-21.973,0.000
1743627892.703,-34.668,-31.738,-30.273,-31.738,0.000
1743627892.707,-30.762,-28.320,-32.227,-34.180,0.000
1743627892.711,-27.344,-35.645,-31.250,-33.203,0.000
1743627892.715,-26.367,-33.203,-30.762,-29.297,0.000
1743627892.719,-26.855,-24.902,-28.809,-25.391,0.000
1743627892.722,-27.832,-26.855,-29.785,-23.926,0.000
1743627892.726,-23.926,-25.391,-26.855,-26.367,0.000
1743627892.730,-29.785,-24.902,-30.762,-30.273,0.000
1743627892.734,-25.879,-24.414,-26.367,-22.949,0.000
1743627892.738,-24.902,-20.020,-17.090,-17.578,0.000
1743627892.742,-27.344,-27.832,-24.414,-23.438,0.000
1743627892.746,-31.250,-34.180,-32.715,-28.320,0.000
1743627892.750,-39.551,-35.156,-29.297,-27.832,0.000
1743627892.754,-33.691,-34.668,-28.320,-28.320,0.000
1743627892.757,-33.203,-11.230,-30.762,-28.809,0.000
1743627892.761,-34.668,-20.508,-28.320,-23.438,0.000
1743627892.765,0.000,-42.480,-27.344,-22.949,0.000
1743627892.769,0.000,-31.738,-25.391,-22.949,0.000
1743627892.773,0.000,-24.902,-22.461,-15.625,0.000
1743627892.777,0.000,-26.367,-24.414,-13.672,0.000
1743627892.781,0.000,-26.367,-28.809,-18.555,0.000
1743627892.785,0.000,-20.996,-25.391,-16.602,0.000
1743627892.789,0.000,-20.508,-30.762,-21.484,0.000
1743627892.793,0.000,-24.902,-35.156,-30.762,0.000
1743627892.797,0.000,-26.855,-30.762,-29.785,0.000
1743627892.800,0.000,-23.926,-29.297,-22.461,0.000
1743627892.804,0.000,-22.461,-28.809,-20.020,0.000
1743627892.808,0.000,-20.508,-27.832,-19.043,0.000
1743627892.812,-0.488,-24.902,-31.738,-13.184,0.000
1743627892.816,-8.789,-32.715,-35.645,-18.555,0.000
1743627892.820,-5.859,-32.227,-34.668,-16.602,0.000
1743627892.824,-6.836,-34.668,-36.621,-18.066,0.000
1743627892.828,-14.648,-24.902,-33.691,-23.438,0.000
1743627892.832,-12.695,-8.789,-28.320,-20.020,0.000
1743627892.836,-12.695,-31.250,-26.367,-12.695,0.000
1743627892.840,-20.020,-43.945,-28.320,-12.695,0.000
1743627892.843,-23.438,-35.156,-27.832,-16.113,0.000
1743627892.847,-21.484,-32.227,-27.832,-17.578,0.000
1743627892.851,-18.066,-36.621,-31.738,-19.531,0.000
1743627892.855,-21.484,-38.574,-32.715,-19.043,0.000
1743627892.859,-33.203,-40.527,-32.227,-19.531,0.000
1743627892.863,-31.250,-44.434,-31.250,-20.508,0.000
1743627892.867,-26.367,-44.922,-33.691,-15.625,0.000
1743627892.871,-28.809,-36.621,-29.297,-10.742,0.000
1743627892.875,-29.785,-30.273,-24.902,-13.184,0.000
1743627892.879,-24.414,-29.297,-28.320,-14.648,0.000
1743627892.883,-23.438,-28.809,-28.320,-11.230,0.000
1743627892.886,-25.879,-34.180,-25.879,-11.719,0.000
1743627892.890,-20.508,-31.250,-28.809,-12.695,0.000
1743627892.894,-18.555,-26.855,-32.715,-14.648,0.000
1743627892.898,-20.996,-24.414,-30.273,-16.602,0.000
1743627892.902,-25.391,-21.484,-24.902,-14.648,0.000
1743627892.906,-26.855,-23.926,-26.855,-16.113,0.000
1743627892.910,-20.996,-30.762,-31.250,-17.578,0.000
1743627892.914,-14.160,-29.297,-28.320,-16.602,0.000
1743627892.918,-19.531,-13.672,-30.273,-20.508,0.000
1743627892.922,-23.438,-21.973,-30.273,-19.531,0.000
1743627892.925,-21.484,-30.273,-29.297,-18.066,0.000
1743627892.929,-24.414,-27.344,-31.250,-17.090,0.000
1743627892.933,-25.879,-34.180,-28.809,-15.137,0.000
1743627892.937,-22.461,-30.273,-24.902,-20.020,0.000
1743627892.941,-19.043,-24.414,-27.344,-19.043,0.000
1743627892.945,-24.902,-19.531,-31.738,-20.020,0.000
1743627892.949,-29.785,-19.531,-30.273,-27.344,0.000
1743627892.953,-29.297,-22.949,-29.785,-31.738,0.000
1743627892.957,-32.227,-21.484,-34.180,-28.809,0.000
1743627892.961,-37.598,-24.902,-31.250,-24.414,0.000
1743627892.965,-37.109,-32.715,-26.855,-26.367,0.000
1743627892.968,-34.668,-31.250,-26.367,-28.809,0.000
1743627892.972,-28.320,-21.973,-24.414,-29.785,0.000
1743627892.976,-25.879,-23.926,-24.414,-31.738,0.000
1743627892.980,-22.461,-34.668,-25.391,-27.344,0.000
1743627892.984,-17.578,-36.621,-25.879,-27.344,0.000
1743627892.988,-17.090,-35.645,-23.438,-26.367,0.000
1743627892.992,-21.973,-37.109,-27.832,-26.855,0.000
1743627892.996,-25.391,-38.086,-30.762,-30.273,0.000
1743627893.000,-26.367,-35.645,-29.785,-28.809,0.000
1743627893.004,-31.250,-33.691,-32.227,-24.902,0.000
1743627893.008,-29.785,-35.645,-26.855,-21.484,0.000
1743627893.011,-31.738,-27.832,-25.391,-24.414,0.000
1743627893.015,-30.762,-12.695,-24.414,-22.949,0.000
1743627893.019,-24.414,-30.273,-16.602,-16.113,0.000
1743627893.023,-28.320,-41.992,-16.113,-19.531,0.000
1743627893.027,-30.762,-41.992,-17.578,-25.391,0.000
1743627893.031,-30.273,-43.457,-20.020,-28.320,0.000
1743627893.035,-32.715,-38.086,-21.973,-34.668,0.000
1743627893.039,-39.062,-32.715,-23.438,-39.551,0.000
1743627893.043,-37.109,-34.180,-24.902,-35.645,0.000
1743627893.047,-32.227,-30.762,0.000,-32.227,0.000
1743627893.050,-27.832,-27.832,0.000,-32.227,0.000
1743627893.054,-23.438,-30.762,0.000,-27.344,0.000
1743627893.058,-26.367,-28.320,0.000,-23.438,0.000
1743627893.062,-30.273,-27.832,0.000,-26.855,0.000
1743627893.066,-25.391,-27.344,0.000,-26.855,0.000
1743627893.070,-24.414,-29.297,0.000,-28.320,0.000
1743627893.074,-24.414,-27.832,0.000,-31.738,0.000
1743627893.078,-18.066,-25.879,0.000,-20.996,0.000
1743627893.082,-19.043,-29.785,0.000,-22.949,0.000
1743627893.086,-26.855,-31.250,0.000,-31.738,0.000
1743627893.089,-28.320,-33.691,0.000,-28.809,0.000
1743627893.093,-24.414,-32.715,-30.762,-28.320,0.000
1743627893.097,-23.438,-21.973,-26.367,-18.066,0.000
1743627893.101,-21.484,-19.531,-26.367,-23.926,0.000
1743627893.105,-20.508,-10.742,-25.391,-24.902,0.000
1743627893.109,-19.043,0.977,-19.531,-14.648,0.000
1743627893.113,-14.160,-17.090,-16.113,-12.695,0.000
1743627893.117,-21.484,-26.855,-16.602,-15.625,0.000
1743627893.121,-23.438,-22.949,-15.625,-17.090,0.000
1743627893.125,-20.020,-24.902,-20.020,-21.973,0.000
1743627893.129,-23.926,-28.320,-20.996,-20.020,0.000
1743627893.132,-23.926,-26.855,-12.207,-12.207,0.000
1743627893.136,-24.414,-29.785,-11.230,-16.113,0.000
1743627893.140,-30.273,-29.785,-18.555,-18.555,0.000
1743627893.144,-37.109,-29.785,-22.461,-20.996,0.000
1743627893.148,-32.715,-26.855,-20.508,-21.484,0.000
1743627893.152,-27.344,-24.414,-20.508,-23.926,0.000
1743627893.156,-29.297,-25.391,-23.926,-27.832,0.000
1743627893.160,-26.855,-22.949,-21.484,-25.879,0.000
1743627893.164,-23.926,-23.438,-20.020,-20.508,0.000
1743627893.168,-25.391,-28.320,-26.367,-17.090,0.000
1743627893.172,-19.531,-29.785,-30.762,-17.090,0.000
1743627893.175,-15.137,-26.367,-33.203,-20.020,0.000
1743627893.179,-15.625,-23.438,-37.598,-21.973,0.000
1743627893.183,-14.160,-27.344,-35.645,-20.508,0.000
1743627893.187,-12.695,-31.738,-34.180,-23.438,0.000
1743627893.191,-13.184,-28.809,-33.691,-25.879,0.000
1743627893.195,-17.090,-29.297,-28.809,-14.160,0.000
1743627893.199,-24.902,-36.621,-31.250,-15.625,0.000
1743627893.203,-31.738,-40.039,-29.297,-22.949,0.000
1743627893.207,-30.273,-31.250,-24.902,-22.461,0.000
1743627893.211,-26.367,-30.273,-27.344,-22.461,0.000
1743627893.214,-28.320,-36.133,-28.320,-28.320,0.000
1743627893.218,-27.832,-35.156,-25.879,-31.250,0.000
1743627893.222,-30.273,-36.621,-22.461,-29.297,0.000
1743627893.226,-36.133,-45.410,-26.855,-34.668,0.000
1743627893.230,-36.133,-39.062,-32.715,-36.133,0.000
1743627893.234,0.000,-30.762,-27.832,-31.250,0.000
1743627893.238,0.000,-48.340,-29.785,-35.156,0.000
1743627893.242,0.000,-40.527,-28.809,-40.527,0.000
1743627893.246,0.000,-30.273,-27.832,-41.016,0.000
1743627893.250,0.000,-35.156,-31.738,-47.363,0.000
1743627893.254,0.000,-32.227,-33.691,-47.852,0.000
1743627893.257,0.000,-32.715,-36.621,-43.457,0.000
1743627893.261,0.000,-35.645,-36.133,-44.922,0.000
1743627893.265,0.000,-27.344,-38.574,-46.387,0.000
1743627893.269,0.000,-27.832,-32.715,-44.434,0.000
1743627893.273,0.000,-36.621,-28.320,-43.945,0.000
1743627893.277,0.000,-29.785,-21.973,-41.016,0.000
1743627893.281,-23.438,-25.391,0.000,-37.109,0.000
1743627893.285,-26.855,-31.738,0.000,-44.434,0.000
1743627893.289,-29.785,-27.344,0.000,-48.828,0.000
1743627893.293,-31.738,-25.879,0.000,-50.781,0.000
1743627893.297,-36.133,-26.855,0.000,-47.852,0.000
1743627893.300,-43.457,-20.020,0.000,-46.875,0.000
1743627893.304,-57.129,-23.926,0.000,-51.758,0.000
1743627893.308,-53.223,-20.508,0.000,-47.852,0.000
1743627893.312,-57.617,-19.531,0.000,-56.152,0.000
1743627893.316,-71.777,-42.480,0.000,-71.777,0.000
1743627893.320,-74.219,-33.691,0.000,-78.125,0.000
1743627893.324,-81.543,-28.809,0.000,-79.590,0.000
1743627893.328,-89.355,-38.086,-18.066,-82.520,0.000
1743627893.332,-93.262,-36.133,-17.578,-90.332,0.000
1743627893.336,-111.328,-36.621,-18.066,-111.328,0.000
1743627893.340,-131.836,-41.016,-24.902,-129.395,0.000
1743627893.343,-142.090,-38.574,-22.949,-135.254,0.000
1743627893.347,-145.020,-32.715,-15.137,-134.766,0.000
1743627893.351,-140.625,-28.809,-6.836,-131.836,0.000
1743627893.355,-147.949,-30.273,-5.371,-138.672,0.000
1743627893.359,-156.250,-32.715,-10.742,-148.926,0.000
1743627893.363,-149.902,-31.738,-12.207,-146.973,0.000
1743627893.367,-146.484,-28.320,-5.371,-137.695,0.000
1743627893.371,-146.484,-27.832,-3.418,-135.742,0.000
1743627893.375,-135.254,-20.996,-6.836,-127.441,0.000
1743627893.379,-120.605,-20.020,-6.348,-123.535,0.000
1743627893.382,-110.352,-23.438,-6.836,-122.070,0.000
1743627893.386,-104.492,-22.461,-7.324,-110.352,0.000
1743627893.390,-93.750,-21.973,-8.301,-103.027,0.000
1743627893.394,-85.449,-18.066,-12.207,-96.191,0.000
1743627893.398,-79.102,-17.578,-15.625,-84.961,0.000
1743627893.402,-67.383,-18.066,-21.973,-81.543,0.000
1743627893.406,-59.570,-17.090,-27.832,-75.684,0.000
1743627893.410,-60.547,-16.113,-30.273,-70.801,0.000
1743627893.414,-58.105,-24.902,-26.855,-59.570,0.000
1743627893.418,-49.805,-14.160,-30.273,-50.293,0.000
1743627893.422,-45.898,-13.184,-35.645,-48.828,0.000
1743627893.425,-42.480,-30.762,-31.738,-38.086,0.000
1743627893.429,-36.621,-20.996,-29.785,-34.668,0.000
1743627893.433,-33.203,-23.926,-30.273,-29.785,0.000
1743627893.437,-35.156,-27.832,-32.227,-22.949,0.000
1743627893.441,-30.762,-21.484,-32.227,-25.391,0.000
1743627893.445,-19.531,-22.949,-33.203,-21.484,0.000
1743627893.449,-19.531,-32.227,-35.156,-18.555,0.000
1743627893.453,-18.066,-39.062,-37.598,-16.602,0.000
1743627893.457,-8.301,-34.668,-39.062,-9.766,0.000
1743627893.461,-2.930,-29.297,-37.598,-7.812,0.000
1743627893.464,1.465,-31.250,-34.180,-8.301,0.000
1743627893.468,4.395,-32.227,-33.203,-6.348,0.000
1743627893.472,8.301,-26.367,-35.156,-5.371,0.000
1743627893.476,11.230,-18.066,-34.180,-0.977,0.000
1743627893.480,13.672,-23.438,-34.668,0.488,0.000
1743627893.484,15.137,-21.484,-40.527,-0.488,0.000
1743627893.488,13.672,-2.930,-40.527,-0.977,0.000
1743627893.492,14.160,-22.949,-36.621,0.488,0.000
1743627893.496,11.230,-36.133,-37.109,-1.465,0.000
1743627893.500,3.418,-29.785,-34.180,-1.465,0.000
1743627893.504,1.953,-32.715,-35.645,0.977,0.000
1743627893.507,10.742,-28.320,-36.133,-1.465,0.000
1743627893.511,10.254,-28.320,-36.133,-5.371,0.000
1743627893.515,7.812,-25.391,-39.062,0.000,0.000
1743627893.519,8.301,-18.066,-37.109,6.348,0.000
1743627893.523,7.324,-20.020,-34.668,3.906,0.000
1743627893.527,4.883,-23.438,-38.574,-0.488,0.000
1743627893.531,5.371,-21.973,-30.273,3.418,0.000
1743627893.535,12.207,-17.090,-25.879,13.184,0.000
1743627893.539,7.812,-24.902,-32.715,10.254,0.000
1743627893.543,0.488,-35.156,-35.156,6.348,0.000
1743627893.546,0.977,-32.715,-35.645,9.766,0.000
1743627893.550,-0.977,-34.180,-38.574,3.418,0.000
1743627893.554,-0.977,-34.180,-38.574,4.395,0.000
1743627893.558,1.953,-30.762,-34.180,3.906,0.000
1743627893.562,4.395,-30.273,-37.109,-0.977,0.000
1743627893.566,2.930,-15.625,-42.480,-2.441,0.000
1743627893.570,0.977,-19.043,-38.086,6.836,0.000
1743627893.574,2.441,-37.598,-31.738,14.648,0.000
1743627893.578,-0.977,-30.273,-30.762,11.719,0.000
1743627893.582,0.000,-23.438,-30.762,10.254,0.000
1743627893.586,5.859,-17.578,-31.738,13.184,0.000
1743627893.589,5.859,-19.531,-28.320,15.137,0.000
1743627893.593,7.324,-23.926,-25.391,10.254,0.000
1743627893.597,9.766,-23.926,-30.762,5.371,0.000
1743627893.601,6.348,-26.367,-33.203,9.277,0.000
1743627893.605,2.441,-31.250,-31.738,11.719,0.000
1743627893.609,-3.418,-34.668,-33.203,2.441,0.000
1743627893.613,-3.906,-34.668,-31.738,5.371,0.000
1743627893.617,-4.883,-34.180,-28.320,13.184,0.000
1743627893.621,-5.859,-34.180,-28.320,11.230,0.000
1743627893.625,-3.906,-30.762,-33.203,6.348,0.000
1743627893.629,-2.441,-20.996,-32.227,3.418,0.000
1743627893.632,2.441,-34.668,-28.809,8.789,0.000
1743627893.636,2.930,-42.969,-28.320,6.348,0.000
1743627893.640,3.906,-34.668,-26.367,0.977,0.000
1743627893.644,5.859,-32.715,-22.461,0.977,0.000
1743627893.648,3.906,-37.598,-22.949,-2.930,0.000
1743627893.652,2.930,-31.250,-28.809,-5.371,0.000
1743627893.656,1.465,-20.508,-30.273,-1.953,0.000
1743627893.660,0.977,-21.973,-28.809,0.488,0.000
1743627893.664,-3.418,-30.762,-30.762,-0.977,0.000
1743627893.668,-4.883,-27.832,-31.250,-5.371,0.000
1743627893.671,-4.883,-23.926,-29.297,-5.859,0.000
1743627893.675,-8.789,-26.367,-34.180,-13.184,0.000
1743627893.679,-9.766,-25.391,-37.598,-19.531,0.000
1743627893.683,-14.160,-30.273,-32.715,-20.996,0.000
1743627893.687,-14.648,-29.785,-29.785,-26.855,0.000
1743627893.691,-17.578,-27.344,-31.738,-21.484,0.000
1743627893.695,-17.578,-26.855,-29.297,-12.207,0.000
1743627893.699,-14.648,-22.461,-25.879,-7.812,0.000
1743627893.703,-20.508,-27.344,-22.949,-12.695,0.000
1743627893.707,-31.738,-20.508,-22.949,-23.926,0.000
1743627893.711,-34.668,-27.832,-22.461,-22.949,0.000
1743627893.714,-27.344,-44.922,-25.391,-18.555,0.000
1743627893.718,-22.949,-35.156,-24.414,-15.625,0.000
1743627893.722,-17.090,-29.297,-20.508,-13.184,0.000
1743627893.726,-16.602,-27.832,-27.832,-15.625,0.000
1743627893.730,-16.113,-25.391,-28.320,-15.137,0.000
1743627893.734,-17.090,-23.926,-24.414,-14.160,0.000
1743627893.738,-13.672,-23.926,-26.855,-17.090,0.000
1743627893.742,-10.742,-23.438,-31.738,-14.160,0.000
1743627893.746,-15.137,-28.809,-40.527,-19.043,0.000
1743627893.750,-21.973,-34.180,-37.109,-23.438,0.000
1743627893.754,-24.902,-36.133,-35.645,-18.066,0.000
1743627893.757,-21.484,-32.227,-37.598,-19.531,0.000
1743627893.761,-19.531,-36.621,-31.738,-19.531,0.000
1743627893.765,-20.996,-37.598,-29.785,-21.973,0.000
1743627893.769,-19.531,-28.809,-29.785,-19.531,0.000
1743627893.773,-24.902,-33.691,-27.344,-21.973,0.000
1743627893.777,-25.391,-18.066,-26.855,-22.949,0.000
1743627893.781,-23.926,-21.973,-27.344,-16.113,0.000
1743627893.785,-29.297,-43.945,-23.438,-11.719,0.000
1743627893.789,-21.973,-41.016,-21.484,-15.137,0.000
1743627893.793,-22.949,-35.645,-20.996,-16.602,0.000
1743627893.797,-28.320,-32.227,-24.414,-15.137,0.000
1743627893.800,-22.949,-33.691,-28.320,-17.578,0.000
1743627893.804,-23.438,-31.250,-30.273,-19.531,0.000
1743627893.808,-26.855,-28.320,-29.297,-21.484,0.000
1743627893.812,-25.879,-20.020,-22.949,-15.625,0.000
1743627893.816,-19.043,-14.160,-20.508,-14.160,0.000
1743627893.820,-16.602,-18.555,-22.461,-17.578,0.000
1743627893.824,-24.902,-25.879,-27.344,-20.996,0.000
1743627893.828,-26.855,-27.832,-29.785,-23.438,0.000
1743627893.832,-26.367,-25.391,-31.250,-26.367,0.000
1743627893.835,-28.320,-21.484,-29.785,-26.855,0.000
1743627893.839,-23.926,-20.996,-29.297,-21.484,0.000
1743627893.843,-9.766,-18.555,-32.227,-17.090,0.000
1743627893.847,-5.859,-5.859,-28.809,-8.789,0.000
1743627893.851,-28.809,-13.672,-25.391,-24.902,0.000
1743627893.855,-54.688,-30.273,-29.785,-52.734,0.000
1743627893.859,-59.570,-33.203,-30.762,-58.594,0.000
1743627893.863,-65.430,-19.531,-27.832,-66.406,0.000
1743627893.867,-71.289,-12.207,-32.715,-83.496,0.000
1743627893.871,-77.637,-33.203,-33.691,-88.867,0.000
1743627893.875,-85.938,-30.273,-27.832,-81.543,0.000
1743627893.878,-85.449,-29.297,-25.879,-75.195,0.000
1743627893.882,-84.961,-27.344,-24.902,-76.172,0.000
1743627893.886,-74.219,-28.320,-27.344,-73.730,0.000
1743627893.890,-63.477,-40.039,-32.227,-69.824,0.000
1743627893.894,-58.594,-41.992,-27.832,-57.617,0.000
1743627893.898,-56.641,-33.203,-25.879,-49.316,0.000
1743627893.902,-50.293,-33.203,-32.715,-52.246,0.000
1743627893.906,-42.480,-41.016,-34.180,-52.246,0.000
1743627893.910,-41.504,-28.809,-31.738,-49.805,0.000
1743627893.914,-39.551,-23.438,-27.344,-48.828,0.000
1743627893.918,-40.039,-34.668,-29.785,-46.387,0.000
1743627893.921,-41.992,-33.691,-32.715,-39.551,0.000
1743627893.925,-36.621,-27.344,-26.855,-32.227,0.000
1743627893.929,-35.645,-27.344,-23.438,-38.574,0.000
1743627893.933,-39.551,-29.297,-26.367,-36.621,0.000
1743627893.937,-31.250,-24.414,-24.902,-29.785,0.000
1743627893.941,-24.902,-25.879,-24.414,-36.621,0.000
1743627893.945,-27.832,-18.555,-26.855,-37.598,0.000
1743627893.949,-32.227,-21.484,-30.273,-28.809,0.000
1743627893.953,-31.250,-48.340,-28.809,-24.414,0.000
1743627893.957,-31.250,-32.227,-26.367,-27.832,0.000
1743627893.961,-26.855,-19.531,-26.367,-24.902,0.000
1743627893.964,-21.973,-23.438,-27.832,-23.926,0.000
1743627893.968,-19.531,-21.973,-29.297,-25.879,0.000
1743627893.972,-19.531,-26.855,-28.809,-23.438,0.000
1743627893.976,-24.414,-33.203,-28.809,-27.344,0.000
1743627893.980,-30.762,-36.621,-34.180,-36.133,0.000
1743627893.984,-36.133,-30.273,-36.133,-33.691,0.000
1743627893.988,-38.086,-28.809,-30.762,-28.809,0.000
1743627893.992,-40.527,-41.016,-34.180,-34.668,0.000
1743627893.996,-37.109,-41.016,-35.156,-32.715,0.000
1743627894.000,-33.203,-33.691,-27.832,-29.297,0.000
1743627894.003,-33.691,-28.809,-27.344,-24.902,0.000
1743627894.007,-33.691,-31.250,-31.250,-21.973,0.000
1743627894.011,-36.621,-36.133,-36.133,-28.320,0.000
1743627894.015,-34.180,-34.668,-39.062,-31.738,0.000
1743627894.019,-28.809,-35.645,-35.156,-31.738,0.000
1743627894.023,-29.297,-38.086,-32.715,-29.297,0.000
1743627894.027,-37.109,-26.367,-36.133,-31.250,0.000
1743627894.031,-36.621,-24.414,-35.645,-28.320,0.000
1743627894.035,-24.902,-42.969,-31.738,-20.508,0.000
1743627894.039,-27.832,-38.086,-34.668,-19.531,0.000
1743627894.043,-22.461,-34.668,-34.668,-15.137,0.000
1743627894.046,-29.297,-40.039,-29.785,-25.879,0.000
1743627894.050,-48.340,-41.016,-23.438,-34.180,0.000
1743627894.054,-48.340,-47.852,-23.438,-34.180,0.000
1743627894.058,-41.016,-50.293,-24.414,-28.809,0.000
1743627894.062,-31.250,-42.969,-27.344,-18.555,0.000
1743627894.066,-26.855,-41.992,-25.879,-17.578,0.000
1743627894.070,-31.250,-40.527,-18.555,-23.438,0.000
1743627894.074,-34.668,-39.062,-21.484,-28.809,0.000
1743627894.078,-25.879,-36.133,-27.344,-25.879,0.000
1743627894.082,-21.973,-34.180,-28.320,-21.973,0.000
1743627894.086,-32.715,-34.668,-29.297,-25.391,0.000
1743627894.089,-31.250,-25.391,-29.297,-24.902,0.000
1743627894.093,-27.344,-23.438,-29.785,-22.461,0.000
1743627894.097,-28.320,-23.438,-29.297,-22.949,0.000
1743627894.101,-24.414,-23.926,-30.273,-22.461,0.000
1743627894.105,-18.066,-23.438,-24.414,-11.230,0.000
1743627894.109,-19.043,-16.113,-22.461,-11.719,0.000
1743627894.113,-28.320,-11.230,-29.297,-22.461,0.000
1743627894.117,-22.461,-22.949,-26.367,-15.137,0.000
1743627894.121,-22.949,-24.902,-20.508,-9.277,0.000
1743627894.125,-28.320,-24.902,-20.996,-13.184,0.000
1743627894.129,-28.809,-24.902,-24.902,-20.020,0.000
1743627894.132,-27.832,-23.926,-24.902,-20.508,0.000
1743627894.136,-33.203,-22.461,-22.461,-20.508,0.000
1743627894.140,-37.598,-23.926,-22.461,-21.973,0.000
1743627894.144,-31.738,-22.949,-24.414,-21.484,0.000
1743627894.148,-30.762,-24.414,-23.438,-18.555,0.000
1743627894.152,-32.227,-32.227,-22.949,-16.113,0.000
1743627894.156,-34.180,-31.738,-24.902,-19.531,0.000
1743627894.160,-38.086,-35.156,-30.762,-23.926,0.000
1743627894.164,-34.668,-33.203,-30.762,-25.391,0.000
1743627894.167,-28.320,-28.809,-26.367,-23.926,0.000
1743627894.171,0.000,-34.180,-22.949,-24.414,0.000
1743627894.175,0.000,-33.691,-25.879,-27.832,0.000
1743627894.179,0.000,-24.414,-24.902,-23.926,0.000
1743627894.183,0.000,-18.555,-19.531,-20.996,0.000
1743627894.187,0.000,-21.484,-25.391,-25.879,0.000
1743627894.191,0.000,-20.508,-26.855,-27.832,0.000
1743627894.195,0.000,-1.953,-25.391,-25.879,0.000
1743627894.199,0.000,-10.742,-26.367,-22.461,0.000
1743627894.203,0.000,-34.668,-26.855,-27.832,0.000
1743627894.207,0.000,-24.414,-23.438,-25.879,0.000
1743627894.210,0.000,-24.414,-24.902,-24.902,0.000
1743627894.214,0.000,-31.738,-26.367,-40.527,0.000
1743627894.218,-45.410,-34.668,-22.949,-42.480,0.000
1743627894.222,-41.992,-39.062,-30.762,-41.992,0.000
1743627894.226,-43.457,-36.621,-32.227,-44.434,0.000
1743627894.230,-41.504,-34.180,-25.879,-34.668,0.000
1743627894.234,-36.621,-40.039,-26.367,-24.414,0.000
1743627894.238,-44.922,-40.527,-31.738,-42.480,0.000
1743627894.242,-56.641,-38.086,-36.621,-65.918,0.000
1743627894.246,-60.059,-39.551,-38.086,-60.059,0.000
1743627894.250,-55.176,-37.598,-41.016,-54.199,0.000
1743627894.253,-40.527,-34.180,-38.086,-46.387,0.000
1743627894.257,-37.598,-40.039,-30.762,-38.574,0.000
1743627894.261,-39.062,-37.598,-33.691,-38.574,0.000
1743627894.265,-44.434,-31.738,-42.969,-38.574,0.000
1743627894.269,-44.922,-37.598,-43.945,-41.016,0.000
1743627894.273,-39.551,-40.527,-43.945,-41.504,0.000
1743627894.277,-40.527,-44.434,-48.340,-42.969,0.000
1743627894.281,-38.086,-45.410,-48.828,-41.504,0.000
1743627894.285,-41.016,-18.555,-48.828,-41.504,0.000
1743627894.289,-43.457,-20.508,-47.363,-38.574,0.000
1743627894.293,-35.645,-50.781,-42.480,-33.203,0.000
1743627894.296,-34.180,-40.527,-36.621,-30.273,0.000
1743627894.300,-35.156,-37.598,-36.133,-25.879,0.000
1743627894.304,-30.762,-45.410,-35.156,-27.344,0.000
1743627894.308,-31.250,-40.527,-29.785,-29.785,0.000
1743627894.312,-31.250,-40.527,-33.203,-30.762,0.000
1743627894.316,-33.203,-43.457,-32.715,-27.344,0.000
1743627894.320,-38.574,-41.504,-30.273,-32.715,0.000
1743627894.324,-44.434,-36.133,-33.203,-37.598,0.000
1743627894.328,-48.828,-41.504,-39.551,-39.062,0.000
1743627894.332,-48.828,-50.293,-40.039,-42.969,0.000
1743627894.335,-46.387,-49.805,-35.645,-40.527,0.000
1743627894.339,-39.551,-47.852,-36.621,-37.109,0.000
1743627894.343,-39.551,-43.945,-36.133,-40.527,0.000
1743627894.347,-39.551,-43.457,-34.668,-40.039,0.000
1743627894.351,-36.133,-45.898,-36.133,-29.785,0.000
1743627894.355,-20.508,-43.457,-34.668,-14.648,0.000
1743627894.359,-7.324,-33.203,-33.203,-9.277,0.000
1743627894.363,-16.602,-29.297,-36.133,-22.949,0.000
1743627894.367,-11.719,-30.762,-35.156,-19.531,0.000
1743627894.371,9.766,-25.391,-31.738,-0.488,0.000
1743627894.375,22.949,-20.020,-34.668,14.160,0.000
1743627894.378,35.156,-20.508,-37.598,22.461,0.000
1743627894.382,38.086,-8.301,-32.715,27.832,0.000
1743627894.386,37.109,0.000,-31.738,25.391,0.000
1743627894.390,46.387,-18.066,-29.785,23.438,0.000
1743627894.394,37.598,-22.461,-26.855,23.438,0.000
1743627894.398,30.762,-16.113,-25.391,21.484,0.000
1743627894.402,33.203,-12.207,-23.438,24.902,0.000
1743627894.406,29.297,-18.555,-23.438,22.949,0.000
1743627894.410,23.438,-23.438,-23.926,19.043,0.000
1743627894.414,9.277,-22.461,-22.949,19.043,0.000
1743627894.418,4.395,-20.996,-25.879,14.160,0.000
1743627894.421,10.742,-16.113,-21.484,11.230,0.000
1743627894.425,14.648,-15.137,-19.531,8.301,0.000
1743627894.429,11.719,-17.578,-23.926,3.906,0.000
1743627894.433,9.277,-14.648,-23.926,3.418,0.000
1743627894.437,9.766,-11.230,-20.020,4.395,0.000
1743627894.441,12.207,-10.742,-25.391,4.395,0.000
1743627894.445,6.836,-13.672,-27.832,1.953,0.000
1743627894.449,2.441,-18.066,-22.949,-3.418,0.000
1743627894.453,0.488,-21.484,-30.273,-8.301,0.000
1743627894.457,-1.465,-20.996,-32.227,-7.812,0.000
1743627894.460,-4.395,-23.926,-23.438,-2.930,0.000
1743627894.464,-6.836,-12.207,-25.391,-7.812,0.000
1743627894.468,-8.789,-4.395,-33.691,-19.043,0.000
1743627894.472,-8.301,-23.926,-31.738,-17.090,0.000
1743627894.476,-8.789,-26.367,-24.902,-9.766,0.000
1743627894.480,-11.230,-23.926,-20.996,-13.184,0.000
1743627894.484,-2.930,-21.484,-20.020,-15.137,0.000
1743627894.488,1.465,-14.648,-23.926,-10.254,0.000
1743627894.492,-4.395,-10.742,-25.391,-9.277,0.000
1743627894.496,-7.324,-8.301,-24.414,-16.113,0.000
1743627894.500,-1.953,-4.883,-24.414,-10.742,0.000
1743627894.503,-5.859,-15.625,-28.809,-6.348,0.000
1743627894.507,-14.648,-24.414,-31.738,-16.113,0.000
1743627894.511,-15.625,-18.066,-31.250,-17.090,0.000
1743627894.515,-16.602,-16.602,-28.320,-11.230,0.000
1743627894.519,-22.461,-15.625,-26.855,-15.137,0.000
1743627894.523,-24.902,-17.090,-27.344,-14.648,0.000
1743627894.527,-21.484,-22.949,-25.879,-14.648,0.000
1743627894.531,-18.555,-20.020,-26.367,-19.043,0.000
1743627894.535,-20.020,-19.531,-29.297,-22.949,0.000
1743627894.539,-21.484,-20.996,-31.250,-30.762,0.000
1743627894.542,-30.273,-22.949,-32.227,-37.598,0.000
1743627894.546,0.000,-20.020,0.000,-36.133,0.000
1743627894.550,0.000,-23.438,0.000,-34.180,0.000
1743627894.554,0.000,-25.391,0.000,-39.062,0.000
1743627894.558,0.000,-10.742,0.000,-46.387,0.000
1743627894.562,0.000,-22.949,0.000,-44.922,0.000
1743627894.566,0.000,-33.203,0.000,-36.621,0.000
1743627894.570,0.000,-25.391,0.000,-35.156,0.000
1743627894.574,0.000,-31.250,0.000,-39.551,0.000
1743627894.578,0.000,-27.832,0.000,-36.621,0.000
1743627894.582,0.000,-24.414,0.000,-37.109,0.000
1743627894.585,0.000,-25.879,0.000,-38.086,0.000
1743627894.589,0.000,-27.832,0.000,-33.691,0.000
1743627894.593,-15.625,-28.320,-33.691,-27.344,0.000
1743627894.597,-14.160,-24.902,-35.156,-22.949,0.000
1743627894.601,-16.113,-22.461,-34.668,-26.367,0.000
1743627894.605,-16.602,-21.973,-34.668,-28.320,0.000
1743627894.609,-17.090,-24.414,-31.250,-24.902,0.000
1743627894.613,-25.879,-30.762,-33.203,-22.949,0.000
1743627894.617,-31.738,-35.156,-35.645,-30.273,0.000
1743627894.621,-36.621,-36.621,-37.109,-32.227,0.000
1743627894.624,-33.203,-36.621,-40.039,-27.344,0.000
1743627894.628,-32.715,-34.668,-38.574,-32.227,0.000
1743627894.632,-40.039,-16.113,-40.527,-38.086,0.000
1743627894.636,-37.598,-20.020,-39.551,-37.598,0.000
1743627894.640,-28.809,-32.227,-34.180,-36.621,0.000
1743627894.644,-29.297,-18.066,-33.203,-33.691,0.000
1743627894.648,-26.855,-15.137,-35.645,-30.273,0.000
1743627894.652,-23.926,-21.484,-38.086,-29.785,0.000
1743627894.656,-29.785,-28.320,-43.457,-32.715,0.000
1743627894.660,-32.227,-28.320,-44.434,-37.109,0.000
1743627894.664,-34.180,-24.902,-40.039,-35.645,0.000
1743627894.667,-35.645,-26.367,-42.480,-27.344,0.000
1743627894.671,-32.715,-25.391,-41.504,-30.762,0.000
1743627894.675,-31.250,-24.414,-43.945,-32.715,0.000
1743627894.679,-33.691,-29.297,-46.875,-27.832,0.000
1743627894.683,-28.809,-30.762,-41.992,-25.879,0.000
1743627894.687,-26.367,-30.273,-34.180,-21.973,0.000
1743627894.691,-28.320,-31.738,-30.273,-19.043,0.000
1743627894.695,-23.926,-29.785,-28.809,-19.043,0.000
1743627894.699,-17.578,-28.809,-29.297,-18.555,0.000
1743627894.703,-19.531,-26.855,-29.297,-15.137,0.000
1743627894.707,-22.461,-28.809,-28.320,-21.973,0.000
1743627894.710,-15.625,-31.738,-26.855,-26.367,0.000
1743627894.714,-19.531,-36.621,-31.738,-26.855,0.000
1743627894.718,-26.367,-39.551,-35.156,-28.320,0.000
1743627894.722,-20.996,-29.297,-30.762,-21.484,0.000
1743627894.726,-21.973,-29.785,-34.180,-25.391,0.000
1743627894.730,-29.785,-36.621,-38.086,-31.250,0.000
1743627894.734,-31.250,-35.645,-35.645,-30.273,0.000
1743627894.738,-22.461,-33.691,-37.109,-30.273,0.000
1743627894.742,-19.043,-30.762,-38.574,-27.832,0.000
1743627894.746,-25.879,-28.320,-35.645,-28.320,0.000
1743627894.750,-23.438,-23.438,-35.645,-29.785,0.000
1743627894.753,-22.461,-18.555,-35.156,-24.902,0.000
1743627894.757,-31.250,-22.949,-38.574,-29.785,0.000
1743627894.761,-35.645,-13.184,-47.363,-38.086,0.000
1743627894.765,-31.738,-15.625,-41.992,-32.715,0.000
1743627894.769,-30.273,-36.133,-35.156,-32.715,0.000
1743627894.773,-34.668,-36.621,-38.574,-35.156,0.000
1743627894.777,-30.762,-36.621,-34.668,-31.738,0.000
1743627894.781,-31.250,-33.203,-28.809,-30.273,0.000
1743627894.785,-37.109,-32.715,-33.203,-24.902,0.000
1743627894.789,-39.551,-31.738,-31.250,-24.414,0.000
1743627894.792,-41.016,-34.668,-29.785,-30.762,0.000
1743627894.796,-36.621,-33.691,-31.250,-28.809,0.000
1743627894.800,-35.645,-28.320,-27.832,-24.902,0.000
1743627894.804,-35.645,-33.203,-26.855,-25.879,0.000
1743627894.808,-29.297,-37.598,-27.832,-26.855,0.000
1743627894.812,-30.762,-38.086,-28.809,-28.320,0.000
1743627894.816,-32.227,-40.527,-29.297,-31.738,0.000
1743627894.820,-28.809,-38.574,-23.926,-28.320,0.000
1743627894.824,-32.227,-37.598,-20.996,-25.391,0.000
1743627894.824,-32.227,-37.598,-20.996,-25.391,0.000
1743627894.828,0.000,-36.621,0.000,-22.461,0.000
1743627894.832,0.000,-29.785,0.000,-22.949,0.000
1743627894.835,0.000,-29.297,0.000,-21.973,0.000
1743627894.839,0.000,-30.273,0.000,-20.996,0.000
1743627894.843,0.000,-33.203,0.000,-24.414,0.000
1743627894.847,0.000,-27.832,0.000,-23.926,0.000
1743627894.851,0.000,-25.391,0.000,-28.809,0.000
1743627894.855,0.000,-27.832,0.000,-38.574,0.000
1743627894.859,0.000,-21.973,0.000,-42.480,0.000
1743627894.863,0.000,-32.715,0.000,-27.832,0.000
1743627894.867,0.000,-30.273,0.000,-36.133,0.000
1743627894.871,0.000,-24.902,0.000,-61.523,0.000
1743627894.875,-33.691,-21.484,-29.785,-71.289,0.000
1743627894.878,-35.645,-21.973,-36.133,-77.637,0.000
1743627894.882,-29.297,-29.297,-36.133,-78.613,0.000
1743627894.886,-26.855,-25.391,-34.668,-74.707,0.000
1743627894.890,-35.156,-22.461,-35.156,-77.148,0.000
1743627894.894,-29.297,-25.879,-31.738,-76.172,0.000
1743627894.898,-23.926,-21.973,-31.738,-67.871,0.000
1743627894.902,-35.156,-25.879,-32.715,-65.918,0.000
1743627894.906,-39.551,-35.645,-33.203,-71.777,0.000
1743627894.910,-21.484,-34.180,-39.062,-72.754,0.000
1743627894.914,-28.809,-25.879,-37.598,-64.941,0.000
1743627894.917,-51.270,-21.973,-36.621,-57.129,0.000
1743627894.921,-51.758,-22.461,-32.227,-55.176,0.000
1743627894.925,-50.293,-24.902,-33.691,-55.176,0.000
1743627894.929,-44.434,-30.273,-40.039,-48.340,0.000
1743627894.933,-43.457,-31.250,-39.551,-39.551,0.000
1743627894.937,-46.875,-37.598,-39.062,-43.945,0.000
1743627894.941,-53.711,-17.578,-33.203,-46.387,0.000
1743627894.945,-53.711,-20.020,-32.227,-42.969,0.000
1743627894.949,-44.922,-44.434,-31.250,-42.480,0.000
1743627894.953,-48.828,-27.832,-28.809,-41.992,0.000
1743627894.956,-56.641,-30.273,-31.738,-43.457,0.000
1743627894.960,-50.781,-35.645,-30.762,-44.922,0.000
1743627894.964,-47.852,-32.227,-30.273,-40.527,0.000
1743627894.968,-44.922,-29.785,-33.203,-39.551,0.000
1743627894.972,-39.062,-24.902,-30.762,-36.621,0.000
1743627894.976,-39.551,-25.391,-27.832,-36.621,0.000
1743627894.980,-32.227,-25.391,-25.391,-36.621,0.000
1743627894.984,-35.645,-27.832,-26.855,-29.785,0.000
1743627894.988,-41.016,-30.273,-31.250,-28.320,0.000
1743627894.992,-37.109,-24.902,-33.691,-30.273,0.000
1743627894.996,-31.738,-29.297,-29.297,-34.180,0.000
1743627894.999,-25.879,-26.367,-26.855,-34.668,0.000
1743627895.003,-21.973,-23.438,-24.902,-27.832,0.000
1743627895.007,-20.508,-21.484,-24.902,-25.879,0.000
1743627895.011,-18.555,-19.531,-25.879,-26.367,0.000
1743627895.015,-14.648,-19.531,-26.855,-23.926,0.000
1743627895.019,-20.020,-19.531,-30.762,-26.367,0.000
1743627895.023,-26.855,-28.320,-36.621,-31.738,0.000
1743627895.027,-28.809,-28.320,-38.574,-34.668,0.000
1743627895.031,-33.203,-29.297,-38.574,-37.598,0.000
1743627895.035,-30.273,-30.762,-38.086,-34.668,0.000
1743627895.039,-22.461,-31.250,-36.621,-36.133,0.000
1743627895.042,-27.344,-37.598,-40.527,-44.434,0.000
1743627895.046,-33.691,-34.668,-40.039,-43.945,0.000
1743627895.050,-36.133,-34.180,-39.551,-47.363,0.000
1743627895.054,-35.156,-32.715,-34.180,-41.992,0.000
1743627895.058,-38.086,-34.180,-32.715,-36.621,0.000
1743627895.062,-40.039,-37.109,0.000,-38.574,0.000
1743627895.066,-37.109,-38.574,0.000,-29.785,0.000
1743627895.070,-43.945,-22.949,0.000,-26.367,0.000
1743627895.074,-40.039,-26.367,0.000,-23.926,0.000
1743627895.078,-29.297,-46.387,0.000,-19.043,0.000
1743627895.081,-21.484,-40.039,0.000,-17.090,0.000
1743627895.085,-19.531,-38.086,0.000,-20.996,0.000
1743627895.089,-32.227,-42.480,0.000,-33.691,0.000
1743627895.093,-31.250,-39.551,0.000,-31.738,0.000
1743627895.097,-20.020,-29.297,0.000,-20.020,0.000
1743627895.101,-19.043,-27.344,0.000,-15.625,0.000
1743627895.105,-22.461,-22.949,0.000,-19.531,0.000
1743627895.109,-22.461,-20.020,-36.621,-25.879,0.000
1743627895.113,-15.137,-19.043,-30.762,-21.484,0.000
1743627895.117,-20.020,-22.949,-33.203,-22.461,0.000
1743627895.121,-29.297,-24.902,-39.551,-30.762,0.000
1743627895.124,-26.855,-12.695,-34.668,-27.832,0.000
1743627895.128,-22.949,-26.855,-32.227,-23.926,0.000
1743627895.132,-22.461,-36.133,-30.762,-24.414,0.000
1743627895.136,-21.973,-35.645,-31.738,-25.879,0.000
1743627895.140,-22.461,-38.086,-31.250,-21.484,0.000
1743627895.144,-23.926,-36.621,-30.762,-20.996,0.000
1743627895.148,-21.973,-34.180,-27.344,-25.391,0.000
1743627895.152,-21.484,-35.645,-28.809,-24.414,0.000
1743627895.156,-20.508,-36.621,-27.344,-19.043,0.000
1743627895.160,-25.879,-39.062,-23.926,-16.602,0.000
1743627895.164,-27.344,-38.574,-30.762,-14.160,0.000
1743627895.167,-24.902,-34.180,-29.297,-13.672,0.000
1743627895.171,-23.438,-32.715,-24.414,-21.973,0.000
1743627895.175,-23.438,-28.809,-25.879,-23.438,0.000
1743627895.179,-24.902,-30.762,-29.297,-19.531,0.000
1743627895.183,-18.066,-32.715,-25.879,-19.043,0.000
1743627895.187,-20.020,-32.227,-22.949,-20.508,0.000
1743627895.191,-30.762,-38.086,-32.715,-22.949,0.000
1743627895.195,-25.879,-39.062,-34.180,-19.531,0.000
1743627895.199,-20.020,-35.645,-29.297,-20.020,0.000
1743627895.203,-21.973,-37.109,0.000,-25.879,0.000
1743627895.207,-23.926,-33.203,0.000,-25.391,0.000
1743627895.210,-20.020,-25.879,0.000,-24.902,0.000
1743627895.214,-12.695,-32.227,0.000,-27.344,0.000
1743627895.218,-16.113,-16.602,0.000,-31.738,0.000
1743627895.222,-16.602,-13.672,0.000,-30.273,0.000
1743627895.226,-17.578,-36.133,0.000,-26.855,0.000
1743627895.230,-22.461,-31.738,0.000,-29.297,0.000
1743627895.234,-20.996,-27.832,0.000,-25.879,0.000
1743627895.238,-23.926,-32.227,0.000,-27.344,0.000
1743627895.242,-25.879,-36.621,0.000,-31.738,0.000
1743627895.245,-25.879,-30.273,0.000,-26.367,0.000
1743627895.249,-26.367,-31.738,-30.762,-22.949,0.000
1743627895.253,-27.344,-35.156,-28.809,-22.949,0.000
1743627895.257,-28.809,-31.250,-24.902,-22.461,0.000
1743627895.261,-28.320,-31.250,-27.832,-26.367,0.000
1743627895.265,-28.809,-27.832,-29.785,-30.273,0.000
1743627895.269,-32.715,-26.855,-29.297,-28.320,0.000
1743627895.273,-32.227,-34.180,-33.203,-25.879,0.000
1743627895.277,-29.785,-36.621,-30.762,-26.367,0.000
1743627895.281,-27.832,-32.227,-28.320,-24.414,0.000
1743627895.285,-26.367,-33.203,-33.691,-31.250,0.000
1743627895.288,-26.367,-36.621,-38.086,-41.504,0.000
1743627895.292,-29.297,-33.203,-37.109,-46.387,0.000
1743627895.296,0.000,-38.086,-38.574,-45.410,0.000
1743627895.300,0.000,-41.016,-39.062,-42.969,0.000
1743627895.304,0.000,-36.621,-33.691,-38.574,0.000
1743627895.308,0.000,-34.668,-32.715,-37.598,0.000
1743627895.312,0.000,-27.832,-32.227,-35.156,0.000
1743627895.316,0.000,-24.902,-31.250,-32.227,0.000
1743627895.320,0.000,-26.855,-33.691,-34.180,0.000
1743627895.324,0.000,-28.809,-33.691,-35.156,0.000
1743627895.328,0.000,-27.344,-33.203,-30.762,0.000
1743627895.331,0.000,-26.367,-35.156,-24.902,0.000
1743627895.335,0.000,-25.879,-31.738,-20.020,0.000
1743627895.339,0.000,-12.695,-35.645,-23.926,0.000
1743627895.343,-27.832,-11.719,-39.062,-29.785,0.000
1743627895.347,-23.926,-28.809,-28.320,-19.531,0.000
1743627895.351,-24.414,-26.855,-28.320,-19.043,0.000
1743627895.355,-24.902,-27.832,-30.762,-20.996,0.000
1743627895.359,-21.484,-31.738,-26.855,-18.066,0.000
1743627895.363,-20.020,-30.273,-27.344,-24.414,0.000
1743627895.367,-25.879,-31.738,-29.785,-32.227,0.000
1743627895.371,-34.180,-38.086,-27.344,-34.180,0.000
1743627895.374,-34.180,-41.016,-24.902,-29.297,0.000
1743627895.378,-31.738,-45.410,-31.738,-33.203,0.000
1743627895.382,-35.645,-42.969,-35.645,-39.551,0.000
1743627895.386,-42.969,-35.645,-34.180,-51.270,0.000
1743627895.390,-46.387,-38.086,-39.551,-56.152,0.000
1743627895.394,-38.574,-40.527,-44.922,-42.480,0.000
1743627895.398,-22.949,-35.645,-49.316,-38.086,0.000
1743627895.402,-25.879,-33.691,-48.828,-42.969,0.000
1743627895.406,-31.250,-32.227,-45.410,-39.551,0.000
1743627895.410,-19.043,-25.879,-41.016,-31.738,0.000
1743627895.413,-16.602,-20.996,-35.645,-30.273,0.000
1743627895.417,-22.461,-30.273,-34.668,-28.809,0.000
1743627895.421,-22.949,-29.785,-42.969,-30.273,0.000
1743627895.425,-23.926,-25.391,-44.922,-33.691,0.000
1743627895.429,-24.414,-38.574,-40.527,-28.320,0.000
1743627895.433,-22.461,-33.691,-36.133,-19.043,0.000
1743627895.437,-14.160,-25.391,-29.785,-10.742,0.000
1743627895.441,-15.625,-23.926,-35.156,-15.137,0.000
1743627895.445,-22.949,-25.391,-35.156,-24.414,0.000
1743627895.449,-23.438,-26.367,-31.250,-22.949,0.000
1743627895.453,-22.949,-36.621,-33.203,-20.996,0.000
1743627895.456,-23.438,-37.598,-33.691,-20.020,0.000
1743627895.460,-22.949,-28.809,-35.645,-22.461,0.000
1743627895.464,-23.926,-29.297,-35.645,-19.531,0.000
1743627895.468,-25.879,-30.273,-29.297,-13.184,0.000
1743627895.472,-25.391,-34.180,-32.227,-15.137,0.000
1743627895.476,-27.832,-34.180,-37.109,-23.926,0.000
1743627895.480,-32.227,-30.762,-31.250,-20.508,0.000
1743627895.484,-32.715,-32.227,-20.996,-13.672,0.000
1743627895.488,-29.297,-25.879,-16.602,-14.648,0.000
1743627895.492,-25.391,-12.695,-16.602,-20.020,0.000
1743627895.496,-20.508,-23.926,-15.137,-16.113,0.000
1743627895.499,-17.090,-31.738,-16.602,-16.602,0.000
1743627895.503,-19.531,-24.414,-19.531,-23.438,0.000
1743627895.507,-21.484,-26.367,-26.855,-29.785,0.000
1743627895.511,-16.113,-27.344,-27.344,-28.320,0.000
1743627895.515,-17.090,-24.414,-27.344,-26.855,0.000
1743627895.519,-21.973,-23.926,-28.809,-34.180,0.000
1743627895.523,-19.043,-27.832,-23.926,-30.762,0.000
1743627895.527,-24.902,-29.297,-23.926,-28.809,0.000
1743627895.531,-32.227,-28.809,0.000,-37.109,0.000
1743627895.535,-28.809,-30.762,0.000,-35.645,0.000
1743627895.539,-30.273,-21.484,0.000,-40.527,0.000
1743627895.542,-34.180,-22.461,0.000,-44.922,0.000
1743627895.546,-30.273,-41.504,0.000,-38.574,0.000
1743627895.550,-35.156,-35.645,0.000,-37.109,0.000
1743627895.554,-42.480,-34.668,0.000,-39.062,0.000
1743627895.558,-39.062,-42.480,0.000,-46.387,0.000
1743627895.562,-33.203,-40.039,0.000,-41.992,0.000
1743627895.566,-30.273,-34.668,0.000,-38.574,0.000
1743627895.570,-30.273,-34.668,0.000,-34.668,0.000
1743627895.574,-34.180,-37.109,0.000,-34.180,0.000
1743627895.578,-42.969,-35.645,-35.156,-35.645,0.000
1743627895.581,-44.434,-37.109,-35.645,-30.273,0.000
1743627895.585,-40.039,-39.551,-38.574,-30.762,0.000
1743627895.589,-38.574,-42.480,-38.574,-27.832,0.000
1743627895.593,-33.691,-41.992,-35.645,-17.578,0.000
1743627895.597,-31.738,-41.504,-39.551,-24.902,0.000
1743627895.601,-28.320,-41.992,-35.645,-25.879,0.000
1743627895.605,-26.367,-40.039,-31.250,-14.160,0.000
1743627895.609,-27.832,-43.457,-32.715,-18.555,0.000
1743627895.613,-34.668,-35.156,-33.203,-24.902,0.000
1743627895.617,-41.016,-34.180,-33.203,-29.297,0.000
1743627895.620,-37.598,-48.340,-27.832,-27.832,0.000
1743627895.624,0.000,-41.016,-28.809,-28.809,0.000
1743627895.628,0.000,-35.156,-32.715,-32.227,0.000
1743627895.632,0.000,-31.250,-26.367,-24.902,0.000
1743627895.636,0.000,-32.715,-24.902,-27.832,0.000
1743627895.640,0.000,-37.109,-24.414,-28.809,0.000
1743627895.644,0.000,-30.762,-18.066,-23.926,0.000
1743627895.648,0.000,-34.180,-22.461,-29.785,0.000
1743627895.652,0.000,-39.551,-25.879,-29.297,0.000
1743627895.656,0.000,-31.250,-23.926,-24.902,0.000
1743627895.660,0.000,-30.273,-22.949,-31.738,0.000
1743627895.663,0.000,-27.832,-19.531,-33.691,0.000
1743627895.667,0.000,-24.414,-20.020,-25.879,0.000
1743627895.671,-37.598,-26.367,-20.020,-27.344,0.000
1743627895.675,-38.574,-27.832,-20.020,-35.156,0.000
1743627895.679,-43.457,-29.297,-23.438,-33.691,0.000
1743627895.683,-36.621,-27.344,-26.855,-34.668,0.000
1743627895.687,-28.320,-27.344,-25.879,-34.180,0.000
1743627895.691,-27.832,-24.902,-23.438,-27.344,0.000
1743627895.695,-25.391,-25.879,-24.414,-28.320,0.000
1743627895.699,-19.531,-16.602,-27.344,-31.738,0.000
1743627895.702,-13.672,-21.973,-32.715,-29.785,0.000
1743627895.706,-16.602,-40.527,-31.250,-27.344,0.000
1743627895.710,-26.855,-32.227,-24.902,-26.367,0.000
1743627895.714,-31.738,-29.297,-26.855,-26.855,0.000
1743627895.718,-32.227,-29.297,-27.832,-28.320,0.000
1743627895.722,-30.273,-29.785,-29.297,-37.598,0.000
1743627895.726,-36.621,-24.414,-30.762,-41.992,0.000
1743627895.730,-42.969,-25.391,-32.227,-41.992,0.000
1743627895.734,-39.062,-33.691,-36.133,-46.387,0.000
1743627895.738,-34.180,-30.762,-34.668,-45.898,0.000
1743627895.742,-37.598,-28.809,-35.156,-45.410,0.000
1743627895.745,-43.457,-31.250,-34.668,-48.828,0.000
1743627895.749,-39.062,-30.273,-32.227,-41.992,0.000
1743627895.753,-41.992,-21.973,-35.156,-44.922,0.000
1743627895.757,-40.039,-17.578,-31.738,-46.875,0.000
1743627895.761,-30.762,-34.668,-26.855,-37.109,0.000
1743627895.765,0.000,-36.133,-34.180,-33.691,0.000
1743627895.769,0.000,-27.832,-37.109,-31.250,0.000
1743627895.773,0.000,-27.344,-34.668,-33.691,0.000
1743627895.777,0.000,-29.297,-33.691,-31.250,0.000
1743627895.781,0.000,-29.297,-35.156,-26.367,0.000
1743627895.785,0.000,-26.855,-35.645,-27.832,0.000
1743627895.788,0.000,-28.320,-35.156,-30.273,0.000
1743627895.792,0.000,-31.738,-32.715,-30.762,0.000
1743627895.796,0.000,-30.762,-28.320,-23.926,0.000
1743627895.800,0.000,-31.250,-30.273,-24.902,0.000
1743627895.804,0.000,-32.715,-31.250,-31.738,0.000
1743627895.808,0.000,-29.785,-33.203,-34.180,0.000
1743627895.812,-18.066,-33.691,-32.227,-30.273,0.000
1743627895.816,-25.391,-25.391,-30.762,-34.668,0.000
1743627895.820,-28.809,-23.438,-30.762,-34.180,0.000
1743627895.824,-28.809,-46.875,-32.715,-29.785,0.000
1743627895.828,-34.180,-40.039,-37.598,-38.086,0.000
1743627895.831,-27.344,-29.297,-36.133,-35.645,0.000
1743627895.835,-22.949,-31.738,-31.738,-32.227,0.000
1743627895.839,-23.438,-36.621,-31.250,-30.762,0.000
1743627895.843,-29.785,-35.156,-30.762,-27.344,0.000
1743627895.847,-31.250,-30.762,-27.832,-24.902,0.000
1743627895.851,-25.879,-27.832,-29.297,-23.926,0.000
1743627895.855,-23.926,-29.785,-32.227,-25.879,0.000
1743627895.859,-21.973,-22.461,-26.855,-23.438,0.000
1743627895.863,-24.902,-21.484,-22.949,-23.438,0.000
1743627895.867,-28.809,-29.297,-24.414,-27.832,0.000
1743627895.870,-33.691,-13.672,-30.762,-29.297,0.000
1743627895.874,-30.762,-18.066,-32.715,-23.926,0.000
1743627895.878,-19.043,-31.738,-26.855,-17.090,0.000
1743627895.882,-21.973,-27.832,-27.344,-14.160,0.000
1743627895.886,-24.902,-36.621,-31.738,-12.207,0.000
1743627895.890,-24.414,-33.691,-30.273,-12.695,0.000
1743627895.894,-26.367,-32.715,-33.203,-16.602,0.000
1743627895.898,-27.832,-33.691,-31.250,-23.926,0.000
1743627895.902,-32.715,-30.273,-26.855,-30.273,0.000
1743627895.906,-37.598,-33.203,-27.344,-32.227,0.000
1743627895.910,-38.574,-28.320,-22.461,-27.832,0.000
1743627895.913,-36.133,-26.855,-20.508,-25.879,0.000
1743627895.917,-35.645,-30.273,-26.855,-32.227,0.000
1743627895.921,-39.062,-29.785,-23.926,-34.180,0.000
1743627895.925,-41.504,-29.785,-24.414,-31.738,0.000
1743627895.929,-39.062,-37.598,-29.297,-37.109,0.000
1743627895.933,-39.062,-43.457,-29.297,-37.109,0.000
1743627895.937,-34.180,-34.180,-30.273,-28.320,0.000
1743627895.941,-37.109,-20.508,-35.156,-34.668,0.000
1743627895.945,-35.156,-31.250,-26.855,-33.203,0.000
1743627895.949,-29.785,-37.109,-21.973,-26.855,0.000
1743627895.953,-31.738,-28.320,-30.762,-28.320,0.000
1743627895.956,-25.879,-32.715,-30.273,-31.250,0.000
1743627895.960,-25.879,-40.039,-32.227,-35.156,0.000
1743627895.964,-29.297,-41.016,-29.785,-36.133,0.000
1743627895.968,-26.367,-35.156,-25.391,-33.691,0.000
1743627895.972,-25.391,-30.762,-28.320,-33.203,0.000
1743627895.976,-25.879,-32.227,-29.297,-36.133,0.000
1743627895.980,-28.809,-34.180,-32.227,-34.180,0.000
1743627895.984,-29.297,-38.574,-38.574,-34.668,0.000
1743627895.988,-25.391,-32.715,-36.621,-29.297,0.000
1743627895.992,-27.832,-26.855,-29.785,-22.461,0.000
1743627895.995,-28.809,-27.832,-24.414,-24.902,0.000
1743627895.999,-22.461,-20.508,-25.391,-28.320,0.000
1743627896.003,-19.531,-20.996,-26.855,-28.809,0.000
1743627896.007,-31.250,-7.812,-31.250,-27.344,0.000
1743627896.011,-35.645,-16.113,-36.621,-28.320,0.000
1743627896.015,-27.344,-38.574,-31.250,-27.832,0.000
1743627896.019,-27.832,-28.320,-27.832,-24.414,0.000
1743627896.023,-30.273,-26.367,-26.855,-24.414,0.000
1743627896.027,-21.484,-29.785,-29.297,-24.414,0.000
1743627896.031,-22.461,-29.785,-30.762,-24.902,0.000
1743627896.034,-25.879,-32.227,-32.227,-26.855,0.000
1743627896.038,-23.926,-29.297,-30.762,-25.391,0.000
1743627896.042,-26.367,-25.391,-27.832,-25.879,0.000
1743627896.046,0.000,-25.391,0.000,-23.438,0.000
1743627896.050,0.000,-27.832,0.000,-21.973,0.000
1743627896.054,0.000,-27.832,0.000,-23.438,0.000
1743627896.058,0.000,-22.461,0.000,-25.879,0.000
1743627896.062,0.000,-18.555,0.000,-24.902,0.000
1743627896.066,0.000,-15.625,0.000,-23.438,0.000
1743627896.070,0.000,-20.508,0.000,-19.531,0.000
1743627896.074,0.000,-10.254,0.000,-17.578,0.000
1743627896.077,0.000,-3.906,0.000,-16.113,0.000
1743627896.081,0.000,-26.367,0.000,-12.695,0.000
1743627896.085,0.000,-25.879,0.000,-19.531,0.000
1743627896.089,0.000,-21.484,0.000,-22.461,0.000
1743627896.093,-20.996,-20.996,-24.902,-15.625,0.000
1743627896.097,-20.020,-17.578,-27.344,-14.648,0.000
1743627896.101,-21.484,-16.113,-23.926,-15.625,0.000
1743627896.105,-18.555,-19.043,-22.949,-11.719,0.000
1743627896.109,-23.926,-25.391,-29.785,-17.090,0.000
1743627896.113,-32.715,-23.926,-27.344,-19.043,0.000
1743627896.117,-35.645,-24.902,-28.320,-18.555,0.000
1743627896.120,-38.574,-30.762,-34.180,-23.438,0.000
1743627896.124,-36.621,-33.203,-30.273,-22.461,0.000
1743627896.128,-38.086,-19.043,-34.668,-28.320,0.000
1743627896.132,-39.551,-22.949,-33.691,-26.367,0.000
1743627896.136,-35.645,-45.898,-32.227,-23.926,0.000
1743627896.140,-35.645,-40.039,-35.645,-34.668,0.000
1743627896.144,-33.691,-32.715,-30.762,-32.227,0.000
1743627896.148,-32.715,-25.879,-32.715,-26.367,0.000
1743627896.152,-26.367,-30.273,-35.156,-32.715,0.000
1743627896.156,-30.762,-39.062,-34.668,-34.668,0.000
1743627896.159,-32.715,-30.273,-30.762,-31.738,0.000
1743627896.163,-28.809,-29.785,-31.738,-31.250,0.000
1743627896.167,-25.879,-38.086,-34.180,-28.809,0.000
1743627896.171,-19.531,-31.738,-32.715,-28.320,0.000
1743627896.175,-18.066,-24.414,-32.227,-25.879,0.000
1743627896.179,-24.414,-21.973,-27.832,-18.555,0.000
1743627896.183,-26.367,-23.926,-25.879,-19.531,0.000
1743627896.187,-21.484,-29.297,-28.320,-21.973,0.000
1743627896.191,-25.391,-25.879,-30.273,-32.227,0.000
1743627896.195,-31.250,-29.297,-31.738,-38.574,0.000
1743627896.199,-29.297,-31.738,-35.645,-35.645,0.000
1743627896.202,-24.902,-14.160,-32.227,-34.180,0.000
1743627896.206,-19.043,-27.832,-23.438,-31.250,0.000
1743627896.210,-16.113,-34.180,-25.879,-32.227,0.000
1743627896.214,-19.043,-27.832,-30.762,-35.156,0.000
1743627896.218,-18.066,-35.645,-28.809,-34.668,0.000
1743627896.222,-15.625,-30.273,-28.809,-34.180,0.000
1743627896.226,-18.066,-25.879,-30.273,-35.156,0.000
1743627896.230,-25.391,-35.156,-31.738,-34.180,0.000
1743627896.234,-30.762,-41.504,-30.273,-30.273,0.000
1743627896.238,-32.715,-39.551,-32.227,-24.414,0.000
1743627896.242,-26.855,-31.250,-31.738,-28.320,0.000
1743627896.245,-23.438,-25.391,-25.391,-35.156,0.000
1743627896.249,-27.832,-26.367,-21.973,-31.250,0.000
1743627896.253,-25.391,-21.484,-26.855,-31.250,0.000
1743627896.257,-26.367,-20.508,-32.227,-31.738,0.000
1743627896.261,-33.203,-19.043,-34.668,-35.156,0.000
1743627896.265,-34.668,-10.742,-39.062,-39.551,0.000
1743627896.269,-26.367,-25.391,-36.621,-28.809,0.000
1743627896.273,-20.996,-28.809,-29.785,-24.902,0.000
1743627896.277,-22.949,-21.484,-28.809,-29.297,0.000
1743627896.281,-21.973,-24.414,-33.203,-27.344,0.000
1743627896.285,-20.508,-24.414,-32.715,-30.273,0.000
1743627896.288,-23.438,-26.367,-29.297,-33.203,0.000
1743627896.292,-23.438,-29.785,-32.227,-35.156,0.000
1743627896.296,-20.996,-32.227,-35.156,-33.691,0.000
1743627896.300,-21.973,-23.926,-29.297,-27.832,0.000
1743627896.304,-20.020,-22.461,-26.855,-23.926,0.000
1743627896.308,-21.973,-29.297,-33.203,-29.297,0.000
1743627896.312,-29.297,-31.250,-30.273,-27.832,0.000
1743627896.316,-35.645,-37.109,-28.809,-29.297,0.000
1743627896.320,-33.203,-41.016,-28.809,-37.109,0.000
1743627896.323,-31.738,-37.109,-25.879,-37.109,0.000
1743627896.327,-34.668,-43.945,-30.273,-38.086,0.000
1743627896.331,-35.645,-32.227,-33.203,-37.598,0.000
1743627896.335,-41.504,-20.020,-32.715,-39.551,0.000
1743627896.339,-42.969,-41.992,-26.367,-31.738,0.000
1743627896.343,-43.945,-47.852,-25.391,-25.879,0.000
1743627896.347,-43.945,-39.551,-28.809,-27.832,0.000
1743627896.351,-40.039,-41.504,-30.273,-33.691,0.000
1743627896.355,-40.527,-45.898,-33.691,-40.039,0.000
1743627896.359,-39.551,-41.016,-32.227,-42.969,0.000
1743627896.363,-39.062,-43.945,-34.180,-40.039,0.000
1743627896.366,-42.969,-41.016,-35.645,-34.668,0.000
1743627896.370,-44.922,-35.156,-30.762,-34.668,0.000
1743627896.374,-41.016,-32.715,-31.250,-36.133,0.000
1743627896.378,-41.016,-35.156,-35.156,-39.062,0.000
1743627896.382,-36.133,-33.203,-34.668,-40.039,0.000
1743627896.386,-26.855,-24.414,-33.691,-36.621,0.000
1743627896.390,-24.414,-27.832,-31.250,-28.809,0.000
1743627896.394,-17.578,-14.160,-25.879,-22.949,0.000
1743627896.398,-16.602,-6.348,-33.203,-25.879,0.000
1743627896.402,-18.066,-31.250,-37.109,-25.391,0.000
1743627896.406,-23.926,-33.691,-35.156,-23.926,0.000
1743627896.409,-26.367,-26.855,-33.203,-24.902,0.000
1743627896.413,-17.578,-21.484,-28.320,-25.391,0.000
1743627896.417,-15.625,-23.438,-27.344,-29.785,0.000
1743627896.421,-15.137,-24.414,-27.344,-28.320,0.000
1743627896.425,-15.625,-27.344,-29.297,-27.344,0.000
1743627896.429,-18.066,-26.367,-36.133,-33.691,0.000
1743627896.433,-22.461,-28.809,-40.527,-38.086,0.000
1743627896.437,-22.461,-34.180,-38.086,-34.668,0.000
1743627896.441,-13.184,-30.762,-31.738,-26.855,0.000
1743627896.445,-21.973,-15.625,-37.109,-30.762,0.000
1743627896.449,-32.715,-21.973,-39.551,-32.715,0.000
1743627896.452,-31.738,-42.969,-36.133,-31.250,0.000
1743627896.456,-38.086,-33.691,-41.016,-36.621,0.000
1743627896.460,-40.527,-28.320,-37.598,-37.598,0.000
1743627896.464,-34.668,-29.785,-34.668,-38.574,0.000
1743627896.468,-29.297,-29.785,-38.086,-37.109,0.000
1743627896.472,-24.902,-29.297,-37.598,-31.250,0.000
1743627896.476,-23.926,-27.832,-35.645,-29.785,0.000
1743627896.480,-29.297,-23.926,-36.133,-27.832,0.000
1743627896.484,-32.715,-19.531,-39.551,-20.020,0.000
1743627896.488,-25.391,-17.578,-38.086,-18.555,0.000
1743627896.491,-15.625,-17.578,-31.738,-17.578,0.000
1743627896.495,-20.996,-9.277,-24.902,-20.020,0.000
1743627896.499,-23.438,-22.949,-18.555,-19.043,0.000
1743627896.503,-13.672,-41.504,-15.625,-10.254,0.000
1743627896.507,-5.859,-38.574,-17.090,-5.371,0.000
1743627896.511,-1.465,-30.762,-20.020,-3.906,0.000
1743627896.515,0.000,-30.273,0.000,-1.465,0.000
1743627896.519,0.000,-39.551,0.000,-0.977,0.000
1743627896.523,0.000,-42.480,0.000,-4.395,0.000
1743627896.527,0.000,-44.922,0.000,-4.883,0.000
1743627896.531,0.000,-46.387,0.000,-4.395,0.000
1743627896.534,0.000,-37.109,0.000,-8.301,0.000
1743627896.538,0.000,-37.598,0.000,-6.836,0.000
1743627896.542,0.000,-43.457,0.000,-3.906,0.000
1743627896.546,0.000,-45.410,0.000,-5.371,0.000
1743627896.550,0.000,-47.363,0.000,-8.789,0.000
1743627896.554,0.000,-44.434,0.000,-12.207,0.000
1743627896.558,0.000,-47.852,0.000,-16.113,0.000
1743627896.562,-1.953,-29.785,-36.621,0.000,0.000
1743627896.566,-7.324,-28.809,-34.668,0.000,0.000
1743627896.570,-10.742,-49.805,-35.645,0.000,0.000
1743627896.574,-10.742,-40.527,-33.691,0.000,0.000
1743627896.577,-15.625,-39.551,-33.691,0.000,0.000
1743627896.581,-21.973,-40.039,-35.156,0.000,0.000
1743627896.585,-20.020,-37.598,-28.320,0.000,0.000
1743627896.589,-14.648,-39.551,-29.297,0.000,0.000
1743627896.593,-18.555,-31.738,-28.320,0.000,0.000
1743627896.597,-28.809,-28.320,-25.879,0.000,0.000
1743627896.601,-27.832,-26.367,-27.344,0.000,0.000
1743627896.605,-30.273,-29.297,-29.785,0.000,0.000
1743627896.609,-14.648,-32.227,-32.715,-15.625,0.000
1743627896.613,-15.137,-28.809,-31.250,-12.695,0.000
1743627896.616,-15.137,-23.926,-31.250,-14.160,0.000
1743627896.620,-22.949,-21.484,-36.133,-20.508,0.000
1743627896.624,-20.996,-35.645,-36.621,-24.902,0.000
1743627896.628,-16.602,-31.250,-31.738,-28.809,0.000
1743627896.632,-16.602,-30.762,-29.297,-30.273,0.000
1743627896.636,-18.066,-35.645,-25.391,-29.297,0.000
1743627896.640,-20.996,-33.203,-22.461,-33.691,0.000
1743627896.644,-26.855,-31.250,-26.367,-39.551,0.000
1743627896.648,-25.879,-26.367,-25.879,-37.109,0.000
1743627896.652,-28.809,-26.855,-30.273,-40.527,0.000
1743627896.656,-38.086,-25.879,-33.691,-45.898,0.000
1743627896.659,-40.039,-28.320,-31.738,-45.898,0.000
1743627896.663,-38.086,-29.297,-27.344,-44.434,0.000
1743627896.667,-36.133,-27.832,-27.344,-40.039,0.000
1743627896.671,-38.086,-32.715,-33.203,-42.480,0.000
1743627896.675,-40.039,-31.250,-32.227,-42.480,0.000
1743627896.679,-39.062,-29.785,-28.320,-35.156,0.000
1743627896.683,-38.086,-24.902,-29.297,-29.297,0.000
1743627896.687,-34.180,-19.043,-27.832,-23.438,0.000
1743627896.691,-24.902,-38.574,-24.414,-20.996,0.000
1743627896.695,-17.090,-37.598,-21.484,-20.508,0.000
1743627896.698,-16.602,-33.691,-22.461,-16.602,0.000
1743627896.702,-23.438,-39.062,-28.809,-17.578,0.000
1743627896.706,-24.414,-38.086,-35.156,-20.996,0.000
1743627896.710,-19.043,-34.180,-33.691,-17.578,0.000
1743627896.714,-15.137,-32.715,-31.738,-13.672,0.000
1743627896.718,-20.020,-34.180,-37.598,-17.090,0.000
1743627896.722,-20.996,-29.297,-34.180,-19.531,0.000
1743627896.726,-17.578,-29.785,-33.691,-26.855,0.000
1743627896.730,-23.926,-30.762,-36.133,-28.809,0.000
1743627896.734,-32.227,-30.762,-35.645,-27.832,0.000
1743627896.738,-32.227,-35.645,-39.062,-33.203,0.000
1743627896.741,-36.133,-26.855,-42.969,-45.410,0.000
1743627896.745,-35.645,-40.527,-42.969,-48.340,0.000
1743627896.749,-25.391,-46.875,-38.574,-37.109,0.000
1743627896.753,-29.297,-33.691,-38.574,-41.504,0.000
1743627896.757,-38.574,-35.156,-36.621,-37.109,0.000
1743627896.761,-35.645,-40.039,-36.621,-29.297,0.000
1743627896.765,-37.109,-36.133,-33.203,-28.809,0.000
1743627896.769,-36.621,-23.438,-25.391,-23.926,0.000
1743627896.773,-31.250,-27.344,-26.367,-24.414,0.000
1743627896.777,-33.691,-33.691,-26.855,-25.879,0.000
1743627896.780,-35.156,-35.645,-29.785,-24.902,0.000
1743627896.784,-31.250,-34.180,-33.691,-29.297,0.000
1743627896.788,-31.250,-30.273,-29.297,-36.621,0.000
1743627896.792,-31.250,-34.180,-27.344,-32.227,0.000
1743627896.796,-34.180,-35.645,-35.156,-31.738,0.000
1743627896.800,-37.598,-34.180,-35.156,-39.062,0.000
1743627896.804,-33.691,-28.809,-29.785,-32.715,0.000
1743627896.808,-33.203,-25.879,-34.668,-33.691,0.000
1743627896.812,-29.785,-24.414,-36.621,-35.156,0.000
1743627896.816,-20.996,-26.367,-35.156,-35.645,0.000
1743627896.820,-26.367,-19.531,-42.969,-38.574,0.000
1743627896.823,-27.832,-15.625,-42.480,-39.551,0.000
1743627896.827,-17.090,-32.715,-37.598,-37.109,0.000
1743627896.831,-17.578,-30.762,-40.527,-32.227,0.000
1743627896.835,-19.043,-27.344,-37.109,-28.320,0.000
1743627896.839,-12.695,-25.879,-32.715,-19.531,0.000
1743627896.843,-7.812,-20.508,-36.133,-20.020,0.000
1743627896.847,-18.066,-13.672,-37.598,-28.809,0.000
1743627896.851,-16.602,-15.625,-38.086,-27.832,0.000
1743627896.855,-6.348,-17.090,-41.016,-20.996,0.000
1743627896.859,-14.160,-14.648,-39.062,-14.160,0.000
1743627896.863,-21.973,-19.043,-36.621,-13.672,0.000
1743627896.866,-26.855,-25.879,-35.645,-13.672,0.000
1743627896.870,-32.715,-27.832,-35.156,-16.113,0.000
1743627896.874,-37.598,-29.297,-33.691,-21.973,0.000
1743627896.878,-36.133,-33.691,-31.738,-23.438,0.000
1743627896.882,-37.598,-30.762,-31.738,-27.344,0.000
1743627896.886,-45.410,-20.508,-31.738,-31.250,0.000
1743627896.890,-45.898,-23.438,-28.809,-35.156,0.000
1743627896.894,-48.340,-15.137,-31.738,-48.340,0.000
1743627896.898,-61.035,-22.949,-28.320,-56.152,0.000
1743627896.902,-65.430,-37.109,-21.973,-58.105,0.000
1743627896.906,-65.918,-35.645,-28.320,-67.383,0.000
1743627896.909,-73.730,-26.367,-30.762,-84.961,0.000
1743627896.913,-85.938,-26.367,-32.715,-102.539,0.000
1743627896.917,-100.098,-44.922,-31.738,-112.793,0.000
1743627896.921,-118.164,-45.898,-29.785,-132.324,0.000
1743627896.925,-126.953,-43.945,-31.738,-144.043,0.000
1743627896.929,-129.883,-43.945,-33.691,-150.391,0.000
1743627896.933,-131.836,-39.551,-31.738,-156.738,0.000
1743627896.937,-133.301,-37.109,-26.367,-158.691,0.000
1743627896.941,-139.648,-39.551,-27.832,-165.039,0.000
1743627896.945,-144.531,-45.410,-35.156,-165.039,0.000
1743627896.948,-137.207,-45.898,-34.180,-157.227,0.000
1743627896.952,-126.465,-41.992,-25.879,-146.973,0.000
1743627896.956,-121.582,-35.645,-20.996,-139.648,0.000
1743627896.960,-115.234,-20.996,-22.949,-130.371,0.000
1743627896.964,-103.027,-39.551,-21.973,-114.746,0.000
1743627896.968,-87.402,-48.828,-17.578,-102.051,0.000
1743627896.972,-78.613,-41.504,-14.160,-88.867,0.000
1743627896.976,-70.312,-48.340,-17.578,-73.730,0.000
1743627896.980,-62.988,-46.875,-22.461,-64.453,0.000
1743627896.984,-54.688,-38.086,-18.555,-53.711,0.000
1743627896.988,-38.086,-37.598,-20.996,-38.574,0.000
1743627896.991,-21.973,-39.062,-22.949,-24.902,0.000
1743627896.995,-13.672,-34.180,-21.973,-7.812,0.000
1743627896.999,-6.348,-35.156,-27.832,0.488,0.000
1743627897.003,0.977,-36.133,-20.996,3.906,0.000
1743627897.007,4.395,-35.645,-10.742,17.578,0.000
1743627897.011,7.324,-37.598,-12.695,27.832,0.000
1743627897.015,10.254,-37.598,-8.789,26.855,0.000
1743627897.019,16.602,-36.133,-4.395,29.785,0.000
1743627897.023,18.066,-31.250,-10.742,30.273,0.000
1743627897.027,14.648,-27.344,-11.230,24.414,0.000
1743627897.031,19.531,-45.410,-11.719,26.367,0.000
1743627897.034,18.555,-41.992,-10.254,30.762,0.000
1743627897.038,16.602,-29.297,-7.324,28.320,0.000
1743627897.042,15.137,-33.203,-16.113,29.785,0.000
1743627897.046,16.113,-37.598,-17.090,27.344,0.000
1743627897.050,18.066,-38.086,-13.672,24.414,0.000
1743627897.054,11.719,-37.598,-18.555,23.926,0.000
1743627897.058,14.160,-35.156,-21.484,23.926,0.000
1743627897.062,21.973,-30.762,-18.555,23.438,0.000
1743627897.066,18.555,-29.785,-21.484,21.484,0.000
1743627897.070,17.090,-34.180,-21.973,21.973,0.000
1743627897.073,15.625,-34.668,-20.996,14.648,0.000
1743627897.077,15.137,-32.227,-28.809,7.324,0.000
1743627897.081,13.672,-36.621,-31.250,4.395,0.000
1743627897.085,1.953,-22.949,-32.227,-4.883,0.000
1743627897.089,0.000,-18.555,-32.715,-4.883,0.000
1743627897.093,6.348,-32.227,-26.367,1.953,0.000
1743627897.097,3.418,-22.949,-24.902,-0.488,0.000
1743627897.101,-0.488,-27.344,-27.832,-0.488,0.000
1743627897.105,0.977,-33.691,-27.344,0.977,0.000
1743627897.109,10.254,-28.320,-21.484,5.859,0.000
1743627897.112,12.207,-30.762,-22.461,7.324,0.000
1743627897.116,11.230,-31.738,-24.414,7.812,0.000
1743627897.120,11.230,-27.832,-19.043,11.719,0.000
1743627897.124,4.883,-27.832,-17.578,14.160,0.000
1743627897.128,-2.930,-30.273,-20.020,10.742,0.000
1743627897.132,-5.371,-35.645,-19.043,10.254,0.000
1743627897.136,-2.930,-34.668,-18.066,11.230,0.000
1743627897.140,-8.301,-31.250,-22.949,5.859,0.000
1743627897.144,-12.207,-35.156,-28.320,8.789,0.000
1743627897.148,-12.695,-11.719,-30.273,4.883,0.000
1743627897.152,-20.508,-18.555,-33.203,-6.348,0.000
1743627897.155,-24.902,-41.992,-32.715,-8.301,0.000
1743627897.159,-22.949,-29.297,-33.203,-12.207,0.000
1743627897.163,-23.438,-27.832,-36.621,-16.602,0.000
1743627897.167,-29.297,-24.414,-38.574,-20.996,0.000
1743627897.171,-30.762,-26.367,-39.551,-27.832,0.000
1743627897.175,-34.180,-29.297,-40.039,-23.438,0.000
1743627897.179,-29.297,-24.902,-41.016,-16.113,0.000
1743627897.183,-21.484,-26.367,-36.621,-12.695,0.000
1743627897.187,-20.020,-25.879,-31.250,-9.766,0.000
1743627897.191,-20.996,-26.367,-31.250,-12.207,0.000
1743627897.195,-14.160,-26.855,-30.762,-7.812,0.000
1743627897.198,-10.254,-29.785,-27.832,-4.883,0.000
1743627897.202,-11.719,-32.715,-29.785,-11.719,0.000
1743627897.206,-12.695,-16.602,-38.574,-20.996,0.000
1743627897.210,-8.789,-23.438,-33.691,-8.789,0.000
1743627897.214,-1.465,-35.645,-21.484,6.836,0.000
1743627897.218,-5.859,-29.297,-19.531,3.906,0.000
1743627897.222,-9.277,-28.809,-20.996,0.000,0.000
1743627897.226,-12.207,-25.879,-28.320,-4.883,0.000
1743627897.230,-12.207,-34.180,-32.715,-6.348,0.000
1743627897.234,-15.625,-33.691,-33.691,-14.160,0.000
1743627897.238,-15.137,-25.391,-34.668,-15.625,0.000
1743627897.241,-9.766,-20.996,-32.715,-16.602,0.000
1743627897.245,-14.648,-25.879,-39.062,-20.508,0.000
1743627897.249,-21.973,-35.645,-42.969,-19.043,0.000
1743627897.253,-22.949,-33.203,-39.551,-17.578,0.000
1743627897.257,-20.508,-30.762,-38.574,-20.508,0.000
1743627897.261,-25.879,-32.715,-37.598,-21.973,0.000
1743627897.265,-24.414,-14.648,0.000,-22.949,0.000
1743627897.269,-20.996,-12.207,0.000,-25.391,0.000
1743627897.273,-18.066,-34.180,0.000,-20.996,0.000
1743627897.277,-18.066,-25.391,0.000,-15.625,0.000
1743627897.280,-18.555,-15.625,0.000,-8.789,0.000
1743627897.284,-14.648,-14.648,0.000,-6.836,0.000
1743627897.288,-11.230,-20.020,0.000,-14.160,0.000
1743627897.292,-15.137,-26.367,0.000,-17.090,0.000
1743627897.296,-15.625,-26.855,0.000,-15.137,0.000
1743627897.300,-13.184,-23.926,0.000,-11.719,0.000
1743627897.304,-15.137,-20.508,0.000,-16.113,0.000
1743627897.308,-10.742,-24.414,0.000,-24.414,0.000
1743627897.312,-7.324,-29.785,-41.016,-25.391,0.000
1743627897.316,-8.789,-26.855,-43.457,-26.367,0.000
1743627897.320,-9.766,-24.414,-44.434,-29.785,0.000
1743627897.323,-15.625,-24.902,-47.852,-25.391,0.000
1743627897.327,-20.020,-30.762,-48.340,-19.531,0.000
1743627897.331,-27.344,-27.344,-44.434,-18.555,0.000
1743627897.335,-29.297,-31.250,-42.969,-18.555,0.000
1743627897.339,-26.855,-25.879,-47.852,-24.414,0.000
1743627897.343,-29.297,-21.973,-46.387,-21.973,0.000
1743627897.347,-26.855,-39.551,-43.457,-23.438,0.000
1743627897.351,-28.320,-32.715,-41.992,-26.855,0.000
1743627897.355,-27.344,-29.297,-35.156,-22.461,0.000
1743627897.359,-22.949,-31.738,-40.039,-30.762,0.000
1743627897.363,-15.625,-26.855,-39.551,-30.273,0.000
1743627897.366,-20.508,-24.902,-33.203,-24.414,0.000
1743627897.370,-23.438,-26.855,-33.203,-25.391,0.000
1743627897.374,-14.160,-28.320,-35.156,-30.273,0.000
1743627897.378,-19.531,-32.715,-39.551,-32.227,0.000
1743627897.382,-24.414,-39.551,-41.504,-30.762,0.000
1743627897.386,-24.902,-38.574,-38.574,-31.738,0.000
1743627897.390,-22.949,-29.297,-32.227,-33.691,0.000
1743627897.394,-17.090,-27.832,-26.855,-30.273,0.000
1743627897.398,-21.973,-28.320,-26.367,-25.391,0.000
1743627897.402,-23.926,-30.762,-36.621,-32.715,0.000
1743627897.405,-25.391,-28.320,-38.574,-35.645,0.000
1743627897.409,-20.020,-26.855,-35.156,-32.227,0.000
1743627897.413,-18.555,-22.461,-38.086,-36.133,0.000
1743627897.417,-26.855,-15.137,-38.574,-35.156,0.000
1743627897.421,-30.273,-35.645,-32.227,-25.879,0.000
1743627897.425,-34.668,-43.457,-30.762,-24.414,0.000
1743627897.429,-37.109,-33.203,-32.227,-28.320,0.000
1743627897.433,-36.621,-33.691,-28.320,-32.227,0.000
1743627897.437,-32.227,-37.598,-28.320,-34.180,0.000
1743627897.441,-29.785,-31.250,-26.367,-30.273,0.000
1743627897.444,-38.086,-31.738,-21.484,-28.320,0.000
1743627897.448,-40.527,-35.645,-26.855,-37.109,0.000
1743627897.452,-35.645,-31.738,-29.297,-39.062,0.000
1743627897.456,-39.062,-27.832,-29.297,-37.109,0.000
1743627897.460,-41.504,-28.809,-38.086,-41.504,0.000
1743627897.464,-42.969,-36.133,-43.457,-37.109,0.000
1743627897.468,-50.781,-21.484,-45.410,-41.992,0.000
1743627897.472,-47.852,-16.113,-42.969,-45.410,0.000
1743627897.476,-35.156,-33.691,-37.598,-35.645,0.000
1743627897.480,-36.621,-29.785,-41.016,-41.016,0.000
1743627897.484,-38.574,-29.785,-40.039,-41.016,0.000
1743627897.487,-38.574,-33.203,-35.645,-35.645,0.000
1743627897.491,-36.133,-33.691,-33.691,-32.715,0.000
1743627897.495,-33.691,-31.738,-33.203,-33.203,0.000
1743627897.499,-33.691,-30.273,-33.691,-33.691,0.000
1743627897.503,-32.227,-33.691,-30.273,-27.344,0.000
1743627897.507,-32.227,-32.715,-24.414,-22.461,0.000
1743627897.511,-33.691,-27.344,-26.367,-23.438,0.000
1743627897.515,-34.180,-27.344,-26.855,-21.484,0.000
1743627897.519,-35.645,-30.273,-26.367,-26.855,0.000
1743627897.523,-41.016,-31.738,-28.809,-31.250,0.000
1743627897.527,-36.621,-29.785,-26.855,-29.297,0.000
1743627897.530,-32.227,-26.855,-21.484,-24.414,0.000
1743627897.534,-36.133,-24.902,-20.996,-27.344,0.000
1743627897.538,-36.621,-27.832,-18.555,-33.203,0.000
1743627897.542,-34.668,-27.832,-22.949,-38.086,0.000
1743627897.546,-34.180,-18.066,-24.902,-31.250,0.000
1743627897.550,-29.297,-37.598,-18.066,-20.508,0.000
1743627897.554,-27.344,-40.527,-16.602,-24.414,0.000
1743627897.558,-25.879,-32.227,-19.043,-27.344,0.000
1743627897.562,-27.832,-34.668,-24.902,-27.832,0.000
1743627897.566,-28.809,-34.668,-29.297,-28.320,0.000
1743627897.569,-26.855,-32.715,-26.367,-24.414,0.000
1743627897.573,-23.926,-34.180,-20.996,-22.461,0.000
1743627897.577,-20.020,-32.715,-18.555,-27.832,0.000
1743627897.581,-20.508,-26.855,-20.996,-28.320,0.000
1743627897.585,-20.996,-22.461,-27.344,-27.344,0.000
1743627897.589,-25.391,-28.320,-28.320,-34.180,0.000
1743627897.593,-26.367,-29.785,-30.762,-35.645,0.000
1743627897.597,-23.926,-19.043,-35.156,-35.156,0.000
1743627897.601,-25.879,-35.645,-38.086,-34.668,0.000
1743627897.605,-25.879,-42.969,-40.039,-33.203,0.000
1743627897.609,-21.973,-33.203,-35.156,-31.250,0.000
1743627897.612,-19.043,-27.832,-32.715,-34.180,0.000
1743627897.616,-21.484,-26.855,-30.762,-39.551,0.000
1743627897.620,-32.227,-37.598,-32.227,-42.969,0.000
1743627897.624,-44.434,-35.645,-36.133,-45.410,0.000
1743627897.628,-46.387,-34.180,-32.227,-40.527,0.000
1743627897.632,-40.039,-38.086,-31.738,-39.551,0.000
1743627897.636,-40.527,-37.109,-36.133,-42.969,0.000
1743627897.640,-41.504,-36.133,-34.180,-37.598,0.000
1743627897.644,-37.598,-32.227,-35.645,-31.738,0.000
1743627897.648,-37.598,-30.762,-35.645,-32.227,0.000
1743627897.652,-35.645,-33.691,-33.691,-33.203,0.000
1743627897.655,-33.691,-35.156,-36.621,-34.180,0.000
1743627897.659,-35.156,-34.180,-36.133,-35.156,0.000
1743627897.663,-33.691,-33.691,-34.668,-32.227,0.000
1743627897.667,-36.621,-37.109,-37.598,-34.668,0.000
1743627897.671,-41.504,-21.484,-33.203,-35.156,0.000
1743627897.675,-38.086,-26.367,-26.855,-34.180,0.000
1743627897.679,-40.039,-40.527,-28.809,-35.156,0.000
1743627897.683,-41.016,-33.691,-36.133,-37.109,0.000
1743627897.687,-36.133,-32.715,-38.574,-41.504,0.000
1743627897.691,-34.180,-30.762,-34.668,-42.480,0.000
1743627897.695,-34.180,-24.902,-31.738,-44.922,0.000
1743627897.698,-34.180,-25.879,-32.227,-48.828,0.000
1743627897.702,-40.039,-35.156,-34.180,-43.945,0.000
1743627897.706,-41.992,-27.344,-34.668,-42.969,0.000
1743627897.710,-33.691,-27.832,-39.062,-41.016,0.000
1743627897.714,-36.133,-36.133,-41.504,-36.133,0.000
1743627897.718,-37.109,-31.738,-36.621,-36.621,0.000
1743627897.722,-36.621,-34.668,-35.156,-36.133,0.000
1743627897.726,-40.527,-23.438,-32.227,-32.227,0.000
1743627897.730,-41.504,-16.602,-27.344,-32.715,0.000
1743627897.734,-34.668,-35.156,-24.414,-27.832,0.000
1743627897.737,-30.762,-34.180,-28.320,-27.344,0.000
1743627897.741,-37.598,-36.621,-30.273,-29.297,0.000
1743627897.745,-41.504,-38.086,-28.809,-22.949,0.000
1743627897.749,-42.480,-34.668,-32.715,-21.484,0.000
1743627897.753,-39.551,-38.574,-30.762,-19.043,0.000
1743627897.757,-37.598,-38.574,-30.273,-26.855,0.000
1743627897.761,-34.668,-39.551,-31.250,-31.738,0.000
1743627897.765,-34.668,-40.039,-29.785,-29.297,0.000
1743627897.769,-40.039,-38.086,-32.715,-31.250,0.000
1743627897.773,-43.457,-38.574,-34.180,-29.785,0.000
1743627897.776,-37.598,-33.691,-31.738,-23.438,0.000
1743627897.780,-32.715,-32.715,-33.203,-25.879,0.000
1743627897.784,-34.180,-36.621,-33.203,-31.738,0.000
1743627897.788,-34.180,-37.598,-35.645,-31.738,0.000
1743627897.792,-33.691,-36.133,-35.645,-35.645,0.000
1743627897.796,-32.715,-34.668,-31.250,-42.480,0.000
1743627897.800,-32.227,-33.203,-31.250,-48.340,0.000
1743627897.804,-37.109,-25.879,-39.551,-48.828,0.000
1743627897.808,-45.410,-38.574,-42.480,-44.434,0.000
1743627897.812,-41.504,-46.387,-32.227,-39.062,0.000
1743627897.816,-28.320,-34.668,-31.250,-35.645,0.000
1743627897.819,-15.625,-27.344,-35.156,-26.367,0.000
1743627897.823,-27.832,-27.832,-26.855,-37.109,0.000
1743627897.827,-54.688,-34.668,-25.391,-57.129,0.000
1743627897.831,-65.430,-38.574,-32.715,-68.359,0.000
1743627897.835,-72.266,-41.992,-24.902,-70.312,0.000
1743627897.839,-81.055,-40.039,-22.461,-81.055,0.000
1743627897.843,-83.496,-43.457,-23.926,-92.285,0.000
1743627897.847,-87.402,-48.828,-20.508,-91.309,0.000
1743627897.851,-95.215,-50.781,-20.020,-85.938,0.000
1743627897.855,-97.656,-57.617,-17.578,-79.102,0.000
1743627897.859,-105.469,-45.898,-15.625,-85.938,0.000
1743627897.862,-111.816,-49.805,-15.625,-81.543,0.000
1743627897.866,-113.281,-67.871,-15.625,-79.102,0.000
1743627897.870,-115.234,-58.105,-12.695,-98.633,0.000
1743627897.874,-114.746,-55.664,-7.812,-102.539,0.000
1743627897.878,-111.328,-59.570,-9.277,-100.098,0.000
1743627897.882,-104.004,-58.105,-15.137,-95.703,0.000
1743627897.886,-99.609,-57.129,-13.672,-83.496,0.000
1743627897.890,-89.844,-53.223,-9.277,-73.242,0.000
1743627897.894,-80.078,-40.039,-8.789,-70.801,0.000
1743627897.898,-77.637,-40.039,-8.301,-62.988,0.000
1743627897.901,-72.266,-49.805,-9.766,-55.176,0.000
1743627897.905,-62.988,-39.551,-8.301,-51.270,0.000
1743627897.909,-62.988,-32.715,-11.230,-50.293,0.000
1743627897.913,-65.430,-43.945,-12.695,-50.293,0.000
1743627897.917,-62.988,-41.992,-6.836,-45.898,0.000
1743627897.921,-59.570,-37.598,0.000,-37.598,0.000
1743627897.925,-62.500,-41.016,0.000,-41.992,0.000
1743627897.929,-60.059,-43.945,0.000,-51.758,0.000
1743627897.933,-54.688,-44.434,0.000,-50.781,0.000
1743627897.937,-50.781,-44.434,0.000,-44.922,0.000
1743627897.941,-53.711,-32.227,0.000,-41.504,0.000
1743627897.944,-58.105,-26.855,0.000,-41.504,0.000
1743627897.948,-48.340,-50.293,0.000,-40.039,0.000
1743627897.952,-51.270,-54.199,0.000,-33.203,0.000
1743627897.956,-52.246,-46.875,0.000,-24.902,0.000
1743627897.960,-41.992,-42.480,0.000,-26.367,0.000
1743627897.964,-41.504,-38.574,0.000,-24.902,0.000
1743627897.968,-39.062,-38.574,-19.043,-18.555,0.000
1743627897.972,-28.320,-37.109,-20.996,-19.531,0.000
1743627897.976,-25.391,-30.273,-22.461,-17.090,0.000
1743627897.980,-20.508,-32.715,-21.484,-13.184,0.000
1743627897.984,-18.066,-39.062,-22.949,-11.719,0.000
1743627897.987,-10.742,-36.133,-23.926,-17.090,0.000
1743627897.991,-13.672,-34.180,-23.926,-17.578,0.000
1743627897.995,-24.414,-43.945,-24.414,-11.719,0.000
1743627897.999,-23.438,-25.879,-21.484,-16.602,0.000
1743627898.003,-22.461,-19.043,-19.531,-18.066,0.000
1743627898.007,-19.043,-39.551,-18.555,-19.043,0.000
1743627898.011,-31.738,-34.668,-20.996,-23.438,0.000
1743627898.015,-36.621,-36.621,-22.461,-26.855,0.000
1743627898.019,-33.691,-37.109,-23.926,-34.668,0.000
1743627898.023,-33.203,-34.180,-27.344,-36.621,0.000
1743627898.027,-30.273,-38.086,-27.344,-39.551,0.000
1743627898.030,-33.203,-38.086,-31.738,-46.875,0.000
1743627898.034,-39.551,-35.645,-35.156,-48.828,0.000
1743627898.038,-35.645,-36.621,-28.320,-42.480,0.000
1743627898.042,-30.762,-37.598,-33.203,-40.039,0.000
1743627898.046,-35.156,-38.086,-40.039,-40.039,0.000
1743627898.050,-36.621,-34.668,-38.574,-33.203,0.000
1743627898.054,-35.645,-35.156,-35.645,-24.414,0.000
1743627898.058,-19.043,-34.668,-30.762,-16.602,0.000
1743627898.062,-8.789,-25.391,-36.621,-17.578,0.000
1743627898.066,-11.719,-24.902,-43.457,-37.598,0.000
1743627898.069,-13.184,-23.438,-43.457,-47.852,0.000
1743627898.073,-12.207,-20.508,-47.363,-38.574,0.000
1743627898.077,-5.859,0.977,-53.711,-39.551,0.000
1743627898.081,0.488,2.441,-55.664,-34.668,0.000
1743627898.085,8.301,-15.625,-60.547,-28.809,0.000
1743627898.089,7.812,-17.578,-64.941,-32.715,0.000
1743627898.093,-4.395,-20.020,-62.988,-30.762,0.000
1743627898.097,-23.438,-18.555,-63.965,-26.855,0.000
1743627898.101,-18.555,-18.066,-62.012,-19.531,0.000
1743627898.105,-20.996,-20.020,-60.059,-20.508,0.000
1743627898.109,0.000,-20.508,-60.059,-26.855,0.000
1743627898.112,0.000,-18.066,-54.199,-28.320,0.000
1743627898.116,0.000,-17.090,-53.223,-26.367,0.000
1743627898.120,0.000,-17.578,-54.688,-26.367,0.000
1743627898.124,0.000,-15.137,-53.711,-22.461,0.000
1743627898.128,0.000,-9.766,-48.340,-18.066,0.000
1743627898.132,0.000,-4.395,-45.410,-18.066,0.000
1743627898.136,0.000,-2.441,-46.387,-18.555,0.000
1743627898.140,0.000,-26.855,-40.527,-20.020,0.000
1743627898.144,0.000,-32.715,-37.598,-21.973,0.000
1743627898.148,0.000,-25.879,-44.434,-24.902,0.000
1743627898.151,0.000,-30.273,-45.410,-23.438,0.000
1743627898.155,-19.531,-29.297,-43.457,-20.996,0.000
1743627898.159,-13.672,-29.297,-37.598,-17.578,0.000
1743627898.163,-15.137,-28.809,-32.227,-6.348,0.000
1743627898.167,-11.719,-25.391,-31.250,-2.930,0.000
1743627898.171,-9.766,-20.996,-31.738,-6.348,0.000
1743627898.175,-5.371,-13.672,-27.344,-5.371,0.000
1743627898.179,-6.348,-18.066,-29.785,-4.883,0.000
1743627898.183,-4.883,-25.391,-28.320,0.000,0.000
1743627898.187,-6.348,-24.902,-23.926,6.348,0.000
1743627898.190,-11.719,-20.996,-25.391,-4.883,0.000
1743627898.194,-10.254,-18.555,-21.484,-7.812,0.000
1743627898.198,-15.137,-22.949,-20.020,-3.418,0.000
1743627898.202,-19.531,-26.855,-20.508,-11.719,0.000
1743627898.206,-12.695,-29.785,-22.949,-16.113,0.000
1743627898.210,-7.324,-20.996,-18.555,-17.090,0.000
1743627898.214,-4.395,-3.418,-17.090,-23.926,0.000
1743627898.218,1.465,-15.137,-18.066,-23.438,0.000
1743627898.222,-1.953,-23.438,-20.996,-28.320,0.000
1743627898.226,-7.324,-21.973,-28.320,-30.762,0.000
1743627898.230,-16.113,-25.879,-30.273,-31.738,0.000
1743627898.233,-12.695,-20.020,-29.297,-35.645,0.000
1743627898.237,-9.766,-18.555,-28.809,-39.551,0.000
1743627898.241,-20.508,-20.020,-26.367,-42.969,0.000
1743627898.245,-20.996,-20.996,-21.484,-33.691,0.000
1743627898.249,-16.602,-17.090,-20.020,-32.715,0.000
1743627898.253,-23.438,-17.090,-19.531,-38.086,0.000
1743627898.257,-20.020,-13.672,-20.996,-42.480,0.000
1743627898.261,-11.719,-10.254,-21.973,-48.828,0.000
1743627898.265,-27.344,-15.625,-20.020,-51.270,0.000
1743627898.269,-36.621,-13.184,-12.207,-42.969,0.000
1743627898.273,-34.668,-10.254,-10.742,-41.992,0.000
1743627898.276,-38.086,-20.020,-18.555,-53.711,0.000
1743627898.280,-52.246,-21.973,-19.043,-61.523,0.000
1743627898.284,-63.477,-13.184,-14.648,-69.336,0.000
1743627898.288,-74.219,-31.738,-11.719,-78.125,0.000
1743627898.292,-75.195,-40.527,-12.207,-80.078,0.000
1743627898.296,-77.637,-33.203,-10.254,-87.891,0.000
1743627898.300,-91.309,-39.062,-7.812,-101.562,0.000
1743627898.304,-96.191,-38.086,-5.371,-116.699,0.000
1743627898.308,-100.586,-32.227,-3.906,-119.629,0.000
1743627898.312,-111.328,-32.715,-8.301,-126.465,0.000
1743627898.316,-115.234,-27.344,-8.789,-137.207,0.000
1743627898.319,-112.793,-25.391,-4.395,-139.160,0.000
1743627898.323,-124.023,-32.227,-5.371,-139.160,0.000
1743627898.327,-125.488,-34.668,-8.301,-140.625,0.000
1743627898.331,-124.512,-31.250,-5.371,-141.602,0.000
1743627898.335,-128.418,-27.344,-5.371,-140.137,0.000
1743627898.339,-113.770,-24.902,-0.977,-127.930,0.000
1743627898.343,-111.328,-27.344,4.395,-120.117,0.000
1743627898.347,-121.582,-32.227,3.418,-122.559,0.000
1743627898.351,-109.863,-24.414,3.906,-107.910,0.000
1743627898.355,-99.121,-19.531,7.812,-88.379,0.000
1743627898.358,-89.844,-39.551,9.766,-73.730,0.000
1743627898.362,-77.148,-38.574,13.184,-66.406,0.000
1743627898.366,-51.758,-30.273,14.160,-47.852,0.000
1743627898.370,-42.480,-37.598,6.348,-33.691,0.000
1743627898.374,-34.668,-41.504,-3.418,-30.273,0.000
1743627898.378,-19.531,-41.016,-6.348,-18.066,0.000
1743627898.382,-6.836,-38.574,-6.348,-3.418,0.000
1743627898.386,10.254,-39.551,-13.184,6.836,0.000
1743627898.390,25.391,-37.109,-20.020,10.742,0.000
1743627898.394,40.527,-29.297,-21.973,15.625,0.000
1743627898.398,43.457,-25.391,-23.438,27.832,0.000
1743627898.401,41.504,-28.809,-25.391,34.180,0.000
1743627898.405,53.711,-29.297,-25.391,34.180,0.000
1743627898.409,60.059,-21.973,-28.809,35.645,0.000
1743627898.413,50.781,-23.438,-28.320,40.527,0.000
1743627898.417,57.129,-29.297,-27.832,43.457,0.000
1743627898.421,53.711,-30.762,-29.297,42.480,0.000
1743627898.425,50.781,-31.250,-31.250,41.992,0.000
1743627898.429,54.688,-32.227,-28.809,40.527,0.000
1743627898.433,39.551,-13.672,-31.250,34.668,0.000
1743627898.437,40.039,-19.043,-31.250,33.691,0.000
1743627898.441,51.270,-43.457,-28.809,34.180,0.000
1743627898.444,50.781,-32.715,-30.273,31.250,0.000
1743627898.448,46.875,-26.855,-29.297,30.273,0.000
1743627898.452,29.297,-28.320,-30.273,31.250,0.000
1743627898.456,19.531,-29.785,-29.785,33.691,0.000
1743627898.460,14.648,-30.762,-32.227,29.785,0.000
1743627898.464,12.695,-33.203,-31.738,27.832,0.000
1743627898.468,15.137,-32.227,-26.367,25.879,0.000
1743627898.472,11.719,-30.273,-34.668,20.508,0.000
1743627898.476,14.648,-27.832,-39.551,20.508,0.000
1743627898.480,21.484,-25.879,-33.691,29.297,0.000
1743627898.484,28.809,-26.367,-35.156,35.156,0.000
1743627898.487,28.320,-24.902,-37.109,34.668,0.000
1743627898.491,18.066,-24.414,-36.621,27.344,0.000
1743627898.495,25.879,-20.996,-33.691,25.879,0.000
1743627898.499,34.180,-19.043,-30.762,27.832,0.000
1743627898.503,28.320,-18.066,-25.879,26.855,0.000
1743627898.507,17.090,-5.371,-27.344,21.484,0.000
1743627898.511,15.137,-10.254,-28.320,13.184,0.000
1743627898.515,16.602,-24.902,-22.461,17.090,0.000
1743627898.519,6.836,-20.508,-26.855,18.066,0.000
1743627898.522,6.348,-17.578,-30.273,10.254,0.000
1743627898.526,5.859,-20.996,-35.645,5.859,0.000
1743627898.530,6.836,-24.414,-36.133,11.230,0.000
1743627898.534,9.277,-22.461,-35.645,8.301,0.000
1743627898.538,4.395,-24.902,-39.551,4.395,0.000
1743627898.542,2.441,-27.344,-39.062,2.930,0.000
1743627898.546,6.348,-30.273,-40.039,-1.465,0.000
1743627898.550,8.789,-23.926,-32.715,6.348,0.000
1743627898.554,10.742,-22.461,-24.414,8.789,0.000
1743627898.558,7.324,-34.180,-29.785,6.836,0.000
