timestamps,TP9,AF7,AF8,TP10,Right AUX
1743046822.690,0.000,-36.621,0.000,-13.672,0.000
1743046822.694,-14.648,-39.062,0.000,-18.066,0.000
1743046822.697,-19.531,-38.574,0.000,-21.484,0.000
1743046822.701,-7.812,-34.180,0.000,-15.137,0.000
1743046822.705,4.883,-29.297,0.000,-8.301,0.000
1743046822.709,-3.906,-31.250,0.000,-11.719,0.000
1743046822.713,-2.930,-41.504,0.000,-14.160,0.000
1743046822.717,4.883,-44.922,0.000,-10.254,0.000
1743046822.721,13.672,-30.762,0.000,-7.812,0.000
1743046822.725,11.230,-24.414,0.000,-7.324,0.000
1743046822.729,6.348,-28.320,0.000,-4.395,0.000
1743046822.733,4.883,-35.156,0.000,-9.766,0.000
1743046822.736,4.395,-37.109,-48.340,-6.836,0.000
1743046822.740,1.465,-37.109,-44.434,-6.836,0.000
1743046822.744,-1.953,-36.133,-45.410,-16.602,0.000
1743046822.748,0.977,-31.250,-45.898,-16.113,0.000
1743046822.752,4.395,-29.785,-43.457,-7.324,0.000
1743046822.756,-4.883,-25.879,-44.922,-8.301,0.000
1743046822.760,-14.160,-25.391,-56.641,-14.648,0.000
1743046822.764,-16.113,-31.250,-53.223,-13.184,0.000
1743046822.768,-12.207,-31.738,-37.598,-16.113,0.000
1743046822.772,-8.789,-32.715,-40.039,-24.414,0.000
1743046822.776,-15.137,-30.273,-43.457,-22.949,0.000
1743046822.779,-20.996,-26.855,-42.480,-22.949,0.000
1743046822.783,-22.461,-27.344,-47.363,-20.508,0.000
1743046822.787,-22.461,-35.645,-43.945,-24.414,0.000
1743046822.791,-19.043,-27.832,-29.785,-17.578,0.000
1743046822.795,-15.625,-21.484,-27.344,-7.324,0.000
1743046822.799,-23.438,-25.879,-33.203,-17.578,0.000
1743046822.803,-27.344,-13.672,-30.273,-24.902,0.000
1743046822.807,-20.996,-15.625,-27.832,-22.949,0.000
1743046822.811,-18.555,-29.785,-27.832,-22.949,0.000
1743046822.815,-19.531,-34.180,-35.156,-26.855,0.000
1743046822.819,-19.043,-32.715,-37.109,-21.973,0.000
1743046822.822,-27.344,-26.367,-30.762,-19.531,0.000
1743046822.826,-26.367,-17.578,-20.996,-25.391,0.000
1743046822.830,-14.160,-13.672,-17.578,-26.367,0.000
1743046822.834,-20.020,-17.578,-24.902,-29.297,0.000
1743046822.838,-35.645,-27.344,-29.785,-30.273,0.000
1743046822.842,-29.297,-24.902,-27.344,-33.691,0.000
1743046822.846,-23.926,-20.996,-23.926,-32.227,0.000
1743046822.850,-20.508,-17.090,-26.367,-24.902,0.000
1743046822.854,-20.508,-22.949,-32.227,-29.785,0.000
1743046822.858,-21.973,-32.715,-29.297,-29.297,0.000
1743046822.861,-23.926,-33.691,-27.832,-25.391,0.000
1743046822.865,-35.645,-39.551,-35.645,-31.250,0.000
1743046822.869,-38.574,-37.598,-40.527,-30.762,0.000
1743046822.873,-39.551,-34.180,-37.109,-30.273,0.000
1743046822.877,-32.227,-32.227,-28.809,-33.203,0.000
1743046822.881,-30.273,-32.715,-26.855,-29.785,0.000
1743046822.885,-29.297,-33.203,-28.809,-31.250,0.000
1743046822.889,-29.297,-34.668,-23.926,-22.949,0.000
1743046822.893,-33.203,-33.691,-23.926,-14.648,0.000
1743046822.897,-32.227,-28.320,-29.297,-20.020,0.000
1743046822.901,-38.574,-32.715,-28.320,-28.320,0.000
1743046822.904,-35.156,-40.527,-24.902,-31.250,0.000
1743046822.908,-34.180,-38.574,-24.902,-33.203,0.000
1743046822.912,-41.016,-41.504,-24.414,-38.086,0.000
1743046822.916,-35.156,-41.016,-27.832,-34.180,0.000
1743046822.920,-38.086,-29.297,-30.273,-30.762,0.000
1743046822.924,-38.086,-24.902,-28.809,-31.250,0.000
1743046822.928,-21.973,-23.438,-23.438,-23.926,0.000
1743046822.932,-25.391,-33.203,-16.113,-29.785,0.000
1743046822.936,-36.621,-39.551,-12.695,-33.691,0.000
1743046822.940,-25.879,-28.809,-13.672,-26.855,0.000
1743046822.944,-27.344,-32.715,-15.625,-24.902,0.000
1743046822.947,-28.809,-44.434,-11.719,-23.438,0.000
1743046822.951,-23.438,-47.852,-5.859,-21.484,0.000
1743046822.955,-26.367,-52.734,-6.348,-20.020,0.000
1743046822.959,-24.902,-55.176,-11.230,-28.809,0.000
1743046822.963,-23.926,-47.852,-16.602,-34.180,0.000
1743046822.967,-28.320,-36.621,-18.555,-27.832,0.000
1743046822.971,-28.320,-29.297,-21.973,-26.855,0.000
1743046822.975,-21.973,-26.855,-23.438,-25.391,0.000
1743046822.979,-17.578,-27.344,-20.020,-16.113,0.000
1743046822.983,-15.137,-30.273,-22.949,-15.625,0.000
1743046822.986,-20.020,-31.250,-27.344,-23.438,0.000
1743046822.990,-24.414,-29.785,-25.391,-19.043,0.000
1743046822.994,-26.367,-30.762,-22.949,-17.578,0.000
1743046822.998,-32.227,-36.133,-20.508,-23.438,0.000
1743046823.002,-29.785,-33.203,-8.789,-20.020,0.000
1743046823.006,-18.066,-26.367,-4.883,-12.207,0.000
1743046823.010,-23.926,-30.273,-13.184,-14.160,0.000
1743046823.014,-35.645,-34.180,-15.137,-24.414,0.000
1743046823.018,-25.879,-35.645,-18.066,-25.879,0.000
1743046823.022,-27.832,-37.109,-29.785,-24.902,0.000
1743046823.026,-35.156,-35.645,-38.086,-24.902,0.000
1743046823.029,-35.645,-37.598,-32.227,-21.973,0.000
1743046823.033,-27.832,-27.344,-21.484,-20.020,0.000
1743046823.037,-20.996,-13.184,-21.484,-16.113,0.000
1743046823.041,-18.555,-19.531,-23.438,-13.672,0.000
1743046823.045,-14.648,-29.785,-20.996,-12.695,0.000
1743046823.049,-13.184,-27.344,-21.973,-11.719,0.000
1743046823.053,-13.184,-23.926,-25.391,-20.020,0.000
1743046823.057,-17.578,-27.344,-26.855,-27.344,0.000
1743046823.061,-26.367,-27.344,-25.391,-26.367,0.000
1743046823.065,-24.902,-21.973,-26.367,-24.414,0.000
1743046823.069,-22.949,-23.926,-35.645,-24.902,0.000
1743046823.072,-26.855,-27.344,-37.598,-30.273,0.000
1743046823.076,-29.785,-29.297,-33.691,-32.227,0.000
1743046823.080,-28.809,-31.738,-35.156,-24.414,0.000
1743046823.084,-31.250,-23.438,-42.969,-24.902,0.000
1743046823.088,-33.203,-17.090,-42.480,-25.391,0.000
1743046823.092,-32.227,-34.668,-44.922,-26.855,0.000
1743046823.096,-34.668,-46.875,-49.805,-26.367,0.000
1743046823.100,-34.668,-43.457,-48.340,-23.926,0.000
1743046823.104,-36.133,-41.504,-48.828,-25.879,0.000
1743046823.108,-35.645,-37.109,-42.969,-22.949,0.000
1743046823.111,-25.879,-31.738,-36.133,-17.578,0.000
1743046823.115,-21.973,-26.367,-34.180,-18.066,0.000
1743046823.119,-27.832,-21.484,-35.156,-21.484,0.000
1743046823.123,-28.320,-28.809,-35.156,-21.484,0.000
1743046823.127,-35.645,-31.738,-29.785,-20.996,0.000
1743046823.131,-46.875,-23.438,-31.250,-25.879,0.000
1743046823.135,-49.316,-28.320,-33.691,-32.227,0.000
1743046823.139,-46.387,-41.992,-26.367,-33.691,0.000
1743046823.143,-47.363,-41.504,-19.531,-39.062,0.000
1743046823.147,-49.805,-37.598,-19.043,-39.551,0.000
1743046823.151,-46.875,-36.621,-13.672,-35.645,0.000
1743046823.154,-49.805,-36.133,-15.137,-41.016,0.000
1743046823.158,-55.176,-38.086,-24.902,-43.457,0.000
1743046823.162,-53.711,-37.598,-21.973,-42.969,0.000
1743046823.166,-55.176,-33.691,-18.555,-38.086,0.000
1743046823.170,-55.176,-38.086,-21.484,-37.109,0.000
1743046823.174,-52.734,-43.457,-22.461,-41.504,0.000
1743046823.178,-52.246,-36.621,-20.996,-44.922,0.000
1743046823.182,-54.688,-47.363,-26.367,-49.805,0.000
1743046823.186,-60.547,-59.082,-36.621,-49.805,0.000
1743046823.190,-56.152,-56.641,-37.109,-50.293,0.000
1743046823.194,-51.758,-54.199,-40.039,-48.340,0.000
1743046823.197,-41.016,-50.293,-32.227,-39.551,0.000
1743046823.201,-36.621,-51.758,-25.879,-35.156,0.000
1743046823.205,-42.969,-47.363,-32.227,-34.668,0.000
1743046823.209,-39.551,-42.480,-35.645,-35.645,0.000
1743046823.213,-35.156,-41.992,-34.180,-34.668,0.000
1743046823.217,-35.156,-49.805,-37.598,-35.645,0.000
1743046823.221,-38.086,-48.828,-41.992,-37.109,0.000
1743046823.225,-43.457,-41.504,-42.480,-38.086,0.000
1743046823.229,-41.992,-45.898,-36.621,-32.227,0.000
1743046823.233,-34.180,-46.387,-34.668,-24.902,0.000
1743046823.236,-33.203,-46.875,-38.574,-25.879,0.000
1743046823.240,-32.715,-46.875,-34.668,-26.367,0.000
1743046823.244,-38.574,-43.945,-32.227,-24.902,0.000
1743046823.248,-40.527,-45.410,-36.133,-28.809,0.000
1743046823.252,-31.250,-44.434,-43.457,-34.180,0.000
1743046823.256,-17.090,-35.645,-44.434,-25.391,0.000
1743046823.260,-19.043,-40.039,-33.203,-19.531,0.000
1743046823.264,-40.527,-48.828,-24.902,-27.832,0.000
1743046823.268,-48.828,-48.340,-27.832,-30.273,0.000
1743046823.272,-44.434,-48.828,-31.250,-23.926,0.000
1743046823.276,-45.410,-56.152,-26.855,-20.020,0.000
1743046823.279,-41.992,-64.941,-24.902,-22.461,0.000
1743046823.283,-45.898,-59.082,-23.926,-22.949,0.000
1743046823.287,-44.434,-51.758,-22.461,-23.926,0.000
1743046823.291,-27.832,-41.504,-17.578,-18.066,0.000
1743046823.295,-22.949,-40.039,-18.555,-15.625,0.000
1743046823.299,-26.367,-43.457,-20.508,-21.973,0.000
1743046823.303,-21.973,-39.551,-17.090,-15.625,0.000
1743046823.307,-15.625,-32.715,-8.789,-10.254,0.000
1743046823.311,-18.555,-33.203,-6.836,-14.160,0.000
1743046823.315,-24.902,-31.250,-13.184,-16.602,0.000
1743046823.319,-19.043,-21.484,-16.113,-16.602,0.000
1743046823.322,-17.090,-31.250,-14.160,-20.020,0.000
1743046823.326,-18.555,-42.480,-17.578,-21.973,0.000
1743046823.330,-26.855,-42.480,-22.461,-20.508,0.000
1743046823.334,-27.344,-35.156,-26.367,-19.531,0.000
1743046823.338,-20.508,-32.227,-34.668,-13.184,0.000
1743046823.342,-23.926,-31.738,-31.250,-6.836,0.000
1743046823.346,0.000,-24.902,0.000,-9.277,0.000
1743046823.350,0.000,-23.926,0.000,-13.184,0.000
1743046823.354,0.000,-27.344,0.000,-15.625,0.000
1743046823.358,0.000,-28.809,0.000,-23.438,0.000
1743046823.361,0.000,-27.832,0.000,-28.809,0.000
1743046823.365,0.000,-19.531,0.000,-20.020,0.000
1743046823.369,0.000,-16.113,0.000,-14.648,0.000
1743046823.373,0.000,-24.414,0.000,-20.020,0.000
1743046823.377,0.000,-34.668,0.000,-26.367,0.000
1743046823.381,0.000,-35.645,0.000,-26.855,0.000
1743046823.385,0.000,-29.297,0.000,-19.531,0.000
1743046823.389,0.000,-29.297,0.000,-13.672,0.000
1743046823.393,-28.809,-27.832,-19.043,-14.648,0.000
1743046823.397,-22.461,-28.320,-20.996,-21.484,0.000
1743046823.401,-29.297,-27.832,-21.973,-22.461,0.000
1743046823.404,-34.668,-20.020,-22.461,-18.555,0.000
1743046823.408,-32.227,-22.461,-27.344,-15.625,0.000
1743046823.412,-25.391,-20.996,-24.902,-20.996,0.000
1743046823.416,-19.043,-21.973,-16.602,-22.461,0.000
1743046823.420,-19.531,-31.738,-13.184,-21.484,0.000
1743046823.424,-27.832,-29.297,-16.602,-31.250,0.000
1743046823.428,-33.203,-22.949,-22.949,-30.762,0.000
1743046823.432,-27.344,-15.137,-21.484,-25.879,0.000
1743046823.436,-20.508,-12.695,-21.484,-28.809,0.000
1743046823.440,-31.738,-22.461,-26.855,-37.598,0.000
1743046823.444,-38.574,-35.156,-33.691,-47.852,0.000
1743046823.447,-41.504,-34.668,-39.551,-48.828,0.000
1743046823.451,-46.387,-28.320,-37.598,-44.434,0.000
1743046823.455,-47.852,-29.785,-33.691,-45.410,0.000
1743046823.459,-43.945,-28.809,-33.691,-43.945,0.000
1743046823.463,-33.691,-24.902,-34.668,-45.410,0.000
1743046823.467,-26.855,-25.879,-33.203,-45.410,0.000
1743046823.471,-23.438,-28.320,-32.227,-37.598,0.000
1743046823.475,-36.621,-28.809,-39.062,-42.969,0.000
1743046823.479,-47.852,-26.855,-44.922,-49.805,0.000
1743046823.483,-39.551,-25.879,-37.598,-40.527,0.000
1743046823.486,-38.086,-22.949,-33.203,-33.203,0.000
1743046823.490,-47.852,-26.855,-41.992,-41.992,0.000
1743046823.494,-46.875,-32.227,-38.574,-47.852,0.000
1743046823.498,-44.434,-31.250,-31.250,-40.527,0.000
1743046823.502,-48.828,-40.039,-37.109,-42.480,0.000
1743046823.506,-46.387,-40.039,-32.715,-36.621,0.000
1743046823.510,-46.387,-37.109,-29.785,-32.715,0.000
1743046823.514,-45.410,-40.039,-39.551,-39.062,0.000
1743046823.518,-43.945,-33.203,-44.434,-35.156,0.000
1743046823.522,-44.922,-33.691,-46.387,-39.062,0.000
1743046823.526,-35.645,-38.574,-39.551,-41.016,0.000
1743046823.529,-28.320,-38.574,-35.156,-40.039,0.000
1743046823.533,-35.156,-44.434,-41.504,-39.062,0.000
1743046823.537,-33.691,-44.922,-40.039,-38.574,0.000
1743046823.541,-32.227,-39.062,-44.922,-40.527,0.000
1743046823.545,-33.203,-37.598,-41.016,-37.109,0.000
1743046823.549,-32.227,-40.039,-29.297,-37.109,0.000
1743046823.553,-27.832,-38.086,-29.297,-40.039,0.000
1743046823.557,-30.273,-36.621,-35.645,-44.434,0.000
1743046823.561,-32.715,-33.691,-34.668,-38.086,0.000
1743046823.565,-29.785,-35.156,-29.297,-38.574,0.000
1743046823.569,-27.832,-44.922,-34.180,-48.340,0.000
1743046823.572,-22.461,-40.039,-29.785,-42.969,0.000
1743046823.576,-26.855,-31.250,-19.531,-33.203,0.000
1743046823.580,-32.227,-35.645,-21.484,-30.273,0.000
1743046823.584,-30.762,-31.250,-22.949,-24.902,0.000
1743046823.588,-31.250,-31.250,-26.855,-28.809,0.000
1743046823.592,-34.668,-32.227,-35.156,-36.133,0.000
1743046823.596,-29.785,-27.344,-36.621,-37.598,0.000
1743046823.600,-23.926,-19.531,-33.203,-34.180,0.000
1743046823.604,-20.996,-21.484,-37.109,-30.762,0.000
1743046823.608,-22.461,-36.133,-43.457,-39.062,0.000
1743046823.611,-26.367,-38.574,-41.992,-40.039,0.000
1743046823.615,-31.738,-37.598,-40.039,-37.598,0.000
1743046823.619,-28.809,-37.109,-35.645,-36.621,0.000
1743046823.623,-28.809,-33.203,-36.133,-39.551,0.000
1743046823.627,-32.227,-30.762,-33.691,-40.039,0.000
1743046823.631,-34.180,-31.738,-32.715,-44.434,0.000
1743046823.635,-28.809,-39.062,-29.785,-37.109,0.000
1743046823.639,-18.555,-36.621,-20.020,-20.996,0.000
1743046823.643,-22.949,-27.344,-21.484,-22.461,0.000
1743046823.647,-33.203,-20.020,-22.949,-35.645,0.000
1743046823.651,-34.668,-21.484,-26.855,-39.551,0.000
1743046823.654,-25.391,-20.020,-39.551,-32.227,0.000
1743046823.658,-21.484,-16.602,-36.621,-22.949,0.000
1743046823.662,-27.344,-18.066,-27.344,-20.996,0.000
1743046823.666,-31.250,-20.508,-23.438,-26.367,0.000
1743046823.670,-35.156,-23.926,-22.461,-30.762,0.000
1743046823.674,0.000,-19.043,0.000,-25.879,0.000
1743046823.678,0.000,-20.020,0.000,-21.484,0.000
1743046823.682,0.000,-24.414,0.000,-18.555,0.000
1743046823.686,0.000,-23.438,0.000,-20.020,0.000
1743046823.690,0.000,-15.625,0.000,-19.043,0.000
1743046823.694,0.000,-15.625,0.000,-19.531,0.000
1743046823.697,0.000,-20.996,0.000,-20.996,0.000
1743046823.701,0.000,-17.578,0.000,-8.789,0.000
1743046823.705,0.000,-17.090,0.000,-11.719,0.000
1743046823.709,0.000,-17.090,0.000,-23.926,0.000
1743046823.713,0.000,-20.996,0.000,-26.855,0.000
1743046823.717,0.000,-26.367,0.000,-25.879,0.000
1743046823.721,-23.926,-21.484,-23.926,-25.879,0.000
1743046823.725,-21.484,-18.555,-23.438,-24.902,0.000
1743046823.729,-24.414,-23.926,-28.320,-23.926,0.000
1743046823.733,-28.320,-27.344,-35.156,-20.020,0.000
1743046823.736,-32.715,-26.855,-30.762,-18.066,0.000
1743046823.740,-26.855,-20.996,-27.832,-15.625,0.000
1743046823.744,-16.602,-19.043,-32.227,-12.695,0.000
1743046823.748,-22.461,-29.785,-23.926,-20.020,0.000
1743046823.752,-32.227,-32.227,-18.555,-25.879,0.000
1743046823.756,-35.645,-24.414,-18.066,-25.879,0.000
1743046823.760,-34.668,-26.367,-21.484,-26.855,0.000
1743046823.764,-27.832,-30.273,-34.668,-24.414,0.000
1743046823.768,-25.879,-27.344,-25.879,-16.602,0.000
1743046823.772,-25.391,-24.414,-22.949,-10.254,0.000
1743046823.776,-21.484,-21.484,-23.926,-20.020,0.000
1743046823.779,-24.902,-25.391,-31.738,-29.785,0.000
1743046823.783,-32.715,-30.273,-31.738,-31.250,0.000
1743046823.787,-31.250,-27.832,-33.691,-32.715,0.000
1743046823.791,-29.297,-30.273,-41.016,-29.785,0.000
1743046823.795,-31.250,-37.109,-46.387,-28.320,0.000
1743046823.799,-31.738,-38.086,-41.504,-31.738,0.000
1743046823.803,-33.203,-32.715,-38.574,-38.574,0.000
1743046823.807,-28.809,-28.809,-37.109,-36.133,0.000
1743046823.811,-20.020,-22.461,-29.297,-25.391,0.000
1743046823.815,-21.973,-27.832,-29.297,-30.762,0.000
1743046823.819,-20.996,-40.527,-30.273,-30.273,0.000
1743046823.822,-13.184,-40.527,-33.203,-26.855,0.000
1743046823.826,-12.207,-34.668,-34.180,-27.832,0.000
1743046823.830,-15.625,-35.645,-32.715,-31.250,0.000
1743046823.834,-8.301,-29.297,-30.762,-29.297,0.000
1743046823.838,-8.789,-19.531,-32.715,-25.879,0.000
1743046823.842,-11.719,-23.438,-37.598,-26.855,0.000
1743046823.846,-10.254,-29.297,-41.504,-29.297,0.000
1743046823.850,-15.625,-30.762,-45.898,-31.250,0.000
1743046823.854,-20.508,-24.414,-40.527,-29.785,0.000
1743046823.858,-22.949,-20.996,-28.809,-28.809,0.000
1743046823.861,-24.414,-23.926,-27.832,-23.926,0.000
1743046823.865,-18.555,-24.902,-26.367,-22.461,0.000
1743046823.869,-25.879,-30.273,-27.832,-26.855,0.000
1743046823.873,-31.250,-34.180,-22.949,-20.508,0.000
1743046823.877,-18.555,-26.367,-14.160,-16.602,0.000
1743046823.881,-20.996,-20.020,-25.391,-32.227,0.000
1743046823.885,-28.809,-21.484,-36.133,-37.598,0.000
1743046823.889,-30.273,-22.949,-40.039,-36.133,0.000
1743046823.893,-30.273,-17.578,-41.016,-33.203,0.000
1743046823.897,-28.809,-16.113,-41.504,-32.715,0.000
1743046823.901,-29.297,-13.672,-41.992,-35.645,0.000
1743046823.904,-35.156,-20.508,-41.992,-35.645,0.000
1743046823.908,-40.039,-27.832,0.000,-40.527,0.000
1743046823.912,-42.969,-27.344,0.000,-38.086,0.000
1743046823.916,-39.551,-22.461,0.000,-35.156,0.000
1743046823.920,-33.691,-25.879,0.000,-33.691,0.000
1743046823.924,-32.227,-23.926,0.000,-32.715,0.000
1743046823.928,-28.320,-11.719,0.000,-34.668,0.000
1743046823.932,-27.344,-16.113,0.000,-33.203,0.000
1743046823.936,-25.879,-32.227,0.000,-34.668,0.000
1743046823.940,-22.461,-34.180,0.000,-31.738,0.000
1743046823.944,-28.809,-34.180,0.000,-32.227,0.000
1743046823.947,-36.621,-38.086,0.000,-36.621,0.000
1743046823.951,-33.203,-35.156,0.000,-38.086,0.000
1743046823.955,-21.973,-34.180,-33.691,-39.551,0.000
1743046823.959,-23.926,-26.367,-34.180,-31.738,0.000
1743046823.963,-30.273,-27.832,-36.621,-32.715,0.000
1743046823.967,-20.508,-37.109,-41.016,-36.621,0.000
1743046823.971,-19.531,-34.180,-39.062,-35.156,0.000
1743046823.975,-24.902,-23.926,-35.645,-35.645,0.000
1743046823.979,-27.344,-28.809,-35.156,-36.621,0.000
1743046823.983,-29.785,-35.645,-39.062,-38.574,0.000
1743046823.986,-31.250,-29.297,-38.574,-39.551,0.000
1743046823.990,-30.273,-24.414,-32.227,-37.598,0.000
1743046823.994,-36.621,-32.227,-35.645,-35.156,0.000
1743046823.998,-35.645,-38.086,-35.645,-37.109,0.000
1743046824.002,-29.785,-32.715,-33.203,-39.551,0.000
1743046824.006,-32.715,-30.273,-30.273,-38.086,0.000
1743046824.010,-25.879,-31.738,-27.832,-34.668,0.000
1743046824.014,-21.484,-29.785,-28.320,-29.785,0.000
1743046824.018,-23.438,-26.367,-20.508,-28.320,0.000
1743046824.022,-20.020,-23.926,-20.020,-25.879,0.000
1743046824.026,-25.391,-34.180,-23.926,-28.809,0.000
1743046824.029,-29.785,-38.086,-23.926,-30.762,0.000
1743046824.033,-26.855,-35.156,-23.926,-24.902,0.000
1743046824.037,-29.297,-34.668,-22.949,-23.926,0.000
1743046824.041,-36.133,-34.180,-26.855,-33.203,0.000
1743046824.045,-33.691,-37.109,-30.273,-32.715,0.000
1743046824.049,-27.344,-32.227,-34.180,-28.809,0.000
1743046824.053,-28.809,-23.926,-33.691,-30.273,0.000
1743046824.057,-28.320,-20.996,-28.320,-32.227,0.000
1743046824.061,-23.926,-26.855,-25.391,-35.156,0.000
1743046824.065,-32.227,-32.227,-28.809,-39.551,0.000
1743046824.069,-37.598,-27.832,-29.297,-38.086,0.000
1743046824.072,-35.645,-31.250,-30.762,-41.992,0.000
1743046824.076,-33.691,-33.691,-32.227,-38.086,0.000
1743046824.080,-39.062,-33.691,-38.574,-34.668,0.000
1743046824.084,-32.715,-29.785,-43.945,-33.203,0.000
1743046824.088,-29.297,-25.391,-45.410,-31.738,0.000
1743046824.092,-35.645,-36.133,-46.875,-41.992,0.000
1743046824.096,0.000,-33.203,-40.039,-42.969,0.000
1743046824.100,0.000,-27.344,-34.668,-36.621,0.000
1743046824.104,0.000,-30.273,-34.668,-31.250,0.000
1743046824.108,0.000,-29.785,-40.527,-24.902,0.000
1743046824.111,0.000,-32.715,-46.387,-28.809,0.000
1743046824.115,0.000,-30.273,-43.457,-35.156,0.000
1743046824.119,0.000,-30.273,-40.039,-29.785,0.000
1743046824.123,0.000,-29.297,-41.016,-21.973,0.000
1743046824.127,0.000,-26.367,-44.434,-21.973,0.000
1743046824.131,0.000,-34.180,-44.922,-26.367,0.000
1743046824.135,0.000,-39.551,-44.434,-32.715,0.000
1743046824.139,0.000,-37.598,-39.551,-28.809,0.000
1743046824.143,-27.832,-31.250,-36.133,-22.461,0.000
1743046824.147,-20.508,-41.504,-39.062,-21.973,0.000
1743046824.151,-20.020,-46.875,-40.039,-27.344,0.000
1743046824.154,-14.648,-42.969,-44.434,-24.414,0.000
1743046824.158,-19.043,-40.039,-49.805,-24.902,0.000
1743046824.162,-28.809,-27.344,-46.387,-27.832,0.000
1743046824.166,-24.902,-28.320,-42.480,-24.902,0.000
1743046824.170,-14.648,-37.109,-47.852,-25.879,0.000
1743046824.174,-14.160,-31.250,-52.734,-23.438,0.000
1743046824.178,-25.879,-31.250,-46.387,-21.973,0.000
1743046824.182,-35.156,-32.227,-35.645,-22.949,0.000
1743046824.186,-29.785,-35.156,-36.621,-24.902,0.000
1743046824.190,-30.762,-32.227,-36.621,-19.043,0.000
1743046824.194,-19.043,-27.344,-32.227,-16.602,0.000
1743046824.197,-27.832,-31.738,-30.762,-21.484,0.000
1743046824.201,-41.992,-30.273,-32.715,-26.367,0.000
1743046824.205,-42.969,-34.180,-33.691,-28.809,0.000
1743046824.209,-30.273,-32.227,-32.227,-26.367,0.000
1743046824.213,-31.738,-24.902,-39.062,-28.320,0.000
1743046824.217,-45.410,-32.715,-42.969,-34.668,0.000
1743046824.221,-45.898,-39.551,-43.945,-39.062,0.000
1743046824.225,-41.016,-39.062,-43.945,-43.945,0.000
1743046824.229,-38.086,-32.715,-42.969,-44.434,0.000
1743046824.233,-34.668,-31.738,-41.992,-36.621,0.000
1743046824.236,-31.250,-31.738,-37.598,-29.297,0.000
1743046824.240,-25.391,-31.738,-31.738,-30.273,0.000
1743046824.244,-15.137,-31.738,-35.156,-27.832,0.000
1743046824.248,-22.461,-35.156,-46.387,-30.273,0.000
1743046824.252,-33.691,-37.598,-46.875,-36.621,0.000
1743046824.256,-31.250,-32.715,-41.504,-29.785,0.000
1743046824.260,-31.738,-33.691,-51.270,-28.809,0.000
1743046824.264,-36.133,-42.969,-54.199,-31.250,0.000
1743046824.268,-28.809,-38.086,-46.875,-27.832,0.000
1743046824.272,-19.043,-27.832,-45.898,-25.391,0.000
1743046824.276,-15.625,-18.066,-43.457,-18.555,0.000
1743046824.279,-22.949,-21.484,-47.852,-25.879,0.000
1743046824.283,-26.855,-33.691,-43.945,-26.855,0.000
1743046824.287,-27.344,-34.668,-39.551,-21.973,0.000
1743046824.291,-27.832,-28.809,-45.410,-27.344,0.000
1743046824.295,-29.297,-29.785,-43.945,-35.645,0.000
1743046824.299,-30.273,-29.297,-39.062,-34.668,0.000
1743046824.303,-30.273,-20.996,-37.598,-32.227,0.000
1743046824.307,-26.855,-22.461,-34.668,-27.832,0.000
1743046824.311,-20.020,-27.344,-30.762,-27.344,0.000
1743046824.315,-14.648,-26.367,-35.156,-27.832,0.000
1743046824.319,-9.277,-29.297,-36.133,-21.973,0.000
1743046824.322,-7.324,-28.809,-23.926,-20.996,0.000
1743046824.326,-39.551,-33.691,-15.625,-42.969,0.000
1743046824.330,-70.312,-36.621,-24.414,-62.988,0.000
1743046824.334,-71.777,-31.738,-37.109,-62.988,0.000
1743046824.338,-68.359,-33.691,-46.875,-71.289,0.000
1743046824.342,-88.867,-38.574,-52.246,-83.496,0.000
1743046824.346,-103.516,-41.504,-50.781,-93.262,0.000
1743046824.350,-104.004,-39.551,-42.969,-96.191,0.000
1743046824.354,-100.586,-38.574,-38.574,-88.867,0.000
1743046824.358,-89.844,-41.504,-38.574,-81.055,0.000
1743046824.361,-75.684,-34.668,-33.203,-75.195,0.000
1743046824.365,-70.312,-30.273,-34.180,-74.219,0.000
1743046824.369,-68.848,-31.250,-41.992,-72.754,0.000
1743046824.373,-63.965,-29.785,-41.504,-59.082,0.000
1743046824.377,-64.941,-28.809,-35.156,-52.734,0.000
1743046824.381,-68.848,-29.785,-29.297,-52.246,0.000
1743046824.385,-64.941,-30.273,-25.879,-47.852,0.000
1743046824.389,-53.711,-28.320,-26.855,-45.898,0.000
1743046824.393,-56.152,-25.391,-29.297,-44.434,0.000
1743046824.397,-52.734,-20.020,-21.973,-39.062,0.000
1743046824.401,-44.922,-23.926,-24.902,-37.109,0.000
1743046824.404,-55.176,-35.156,-40.039,-44.922,0.000
1743046824.408,-56.152,-38.574,-42.969,-49.805,0.000
1743046824.412,-43.457,-41.016,-35.645,-43.945,0.000
1743046824.416,-38.574,-37.109,-28.809,-38.086,0.000
1743046824.420,-39.062,-29.297,-30.273,-34.668,0.000
1743046824.424,-36.621,-30.762,-30.762,-41.504,0.000
1743046824.428,-32.715,-30.762,-28.809,-39.062,0.000
1743046824.432,-33.691,-29.297,-32.715,-26.855,0.000
1743046824.436,-32.715,-30.762,-32.715,-28.320,0.000
1743046824.440,-26.855,-30.273,-31.250,-29.297,0.000
1743046824.444,-15.625,-18.066,-26.367,-20.508,0.000
1743046824.447,-14.160,-14.160,-25.391,-24.414,0.000
1743046824.451,-23.926,-20.020,-33.691,-29.297,0.000
1743046824.455,-30.273,-22.949,-37.598,-27.344,0.000
1743046824.459,-37.109,-31.738,-38.086,-33.691,0.000
1743046824.463,-40.039,-36.133,-42.480,-41.992,0.000
1743046824.467,-42.480,-36.133,-48.340,-43.457,0.000
1743046824.471,-46.875,-40.527,-49.805,-46.875,0.000
1743046824.475,-46.875,-42.969,-48.340,-49.316,0.000
1743046824.479,-50.781,-41.504,-46.875,-47.363,0.000
1743046824.483,-56.641,-43.457,-46.387,-48.340,0.000
1743046824.486,-51.758,-48.340,-44.922,-44.922,0.000
1743046824.490,-48.340,-41.016,-41.016,-34.180,0.000
1743046824.494,-42.969,-28.809,-35.156,-30.273,0.000
1743046824.498,-35.645,-33.691,-29.297,-29.785,0.000
1743046824.502,-36.133,-40.039,-35.156,-31.250,0.000
1743046824.506,-33.203,-36.133,-38.086,-32.227,0.000
1743046824.510,-23.438,-28.320,-34.668,-23.438,0.000
1743046824.514,-18.066,-31.250,-38.574,-16.113,0.000
1743046824.518,-20.508,-34.668,-43.945,-18.066,0.000
1743046824.522,-20.996,-32.715,-39.551,-19.043,0.000
1743046824.526,-17.090,-37.598,-33.691,-20.020,0.000
1743046824.529,-20.996,-41.504,-37.109,-20.508,0.000
1743046824.533,-35.645,-40.527,-37.109,-20.996,0.000
1743046824.537,-32.227,-40.039,-37.109,-25.879,0.000
1743046824.541,-19.531,-33.691,-39.062,-23.438,0.000
1743046824.545,-19.531,-36.133,-36.133,-22.949,0.000
1743046824.549,-19.043,-43.457,-35.645,-26.855,0.000
1743046824.553,-16.113,-44.434,-33.203,-22.461,0.000
1743046824.557,-13.184,-43.457,-35.645,-24.902,0.000
1743046824.561,-12.695,-43.457,-35.645,-26.367,0.000
1743046824.565,-5.371,-35.156,-31.250,-20.996,0.000
1743046824.569,6.348,-29.297,-33.691,-15.625,0.000
1743046824.572,-16.602,-33.203,-36.621,-29.785,0.000
1743046824.576,-47.363,-41.992,-34.180,-52.246,0.000
1743046824.580,-62.500,-47.852,-35.645,-63.965,0.000
1743046824.584,-59.082,-28.809,-34.668,-60.059,0.000
1743046824.588,-49.316,-25.879,-30.273,-53.711,0.000
1743046824.592,-60.059,-42.480,-39.551,-63.965,0.000
1743046824.596,-70.801,-44.922,-41.992,-67.383,0.000
1743046824.600,-74.707,-43.945,-36.133,-62.988,0.000
1743046824.604,-66.895,-41.992,-34.668,-59.082,0.000
1743046824.608,-60.059,-41.016,-34.668,-61.035,0.000
1743046824.612,-57.617,-43.945,-36.621,-62.988,0.000
1743046824.615,-50.781,-41.504,-38.574,-51.270,0.000
1743046824.619,-41.016,-34.180,-38.574,-42.969,0.000
1743046824.623,-37.109,-39.551,-31.250,-46.387,0.000
1743046824.627,-43.945,-40.527,-25.879,-46.875,0.000
1743046824.631,-50.293,-27.832,-34.668,-40.039,0.000
1743046824.635,-43.945,-31.738,-35.156,-40.039,0.000
1743046824.639,-38.086,-42.969,-31.738,-43.945,0.000
1743046824.643,-41.992,-36.621,-37.109,-42.969,0.000
1743046824.647,-47.852,-35.156,-41.016,-41.504,0.000
1743046824.651,-49.316,-36.133,-33.691,-46.387,0.000
1743046824.654,-45.410,-34.180,-35.156,-48.340,0.000
1743046824.658,-44.434,-36.133,-36.133,-41.016,0.000
1743046824.662,-51.270,-35.156,-34.668,-43.945,0.000
1743046824.666,-47.852,-31.250,-38.086,-50.293,0.000
1743046824.670,-38.574,-35.645,-40.527,-44.434,0.000
1743046824.674,-36.133,-34.180,-45.410,-39.062,0.000
1743046824.678,-41.992,-19.043,-35.156,-34.180,0.000
1743046824.682,-42.969,-23.438,-26.855,-37.109,0.000
1743046824.686,-31.738,-33.691,-25.391,-36.133,0.000
1743046824.690,-29.785,-26.855,-21.484,-29.297,0.000
1743046824.694,-24.414,-25.879,-31.250,-30.762,0.000
1743046824.697,-20.508,-26.855,-44.434,-33.691,0.000
1743046824.701,-35.156,-32.227,-44.434,-35.645,0.000
1743046824.705,-34.668,-37.109,-39.062,-32.227,0.000
1743046824.709,-33.203,-34.180,-41.992,-32.715,0.000
1743046824.713,-33.203,-30.273,-37.109,-29.297,0.000
1743046824.717,-23.438,-31.250,-37.109,-28.320,0.000
1743046824.721,-30.762,-38.086,-49.316,-37.109,0.000
1743046824.725,-35.645,-38.086,-44.434,-40.527,0.000
1743046824.729,-32.227,-37.109,-40.527,-32.715,0.000
1743046824.733,-18.555,-39.551,-41.992,-29.785,0.000
1743046824.736,-20.020,-43.945,-41.992,-35.645,0.000
1743046824.740,-32.715,-43.945,-52.734,-33.203,0.000
1743046824.744,-34.668,-41.504,-61.035,-29.785,0.000
1743046824.748,-28.809,-45.410,-56.152,-29.785,0.000
1743046824.752,0.000,-42.480,-47.852,-31.738,0.000
1743046824.756,0.000,-36.133,-41.016,-26.367,0.000
1743046824.760,0.000,-35.156,-39.551,-18.066,0.000
1743046824.764,0.000,-30.273,-27.344,-7.324,0.000
1743046824.768,0.000,-28.809,-20.508,-6.836,0.000
1743046824.772,0.000,-36.133,-35.156,-25.391,0.000
1743046824.776,0.000,-41.504,-48.828,-38.086,0.000
1743046824.779,0.000,-46.387,-52.246,-37.598,0.000
1743046824.783,0.000,-51.270,-55.664,-39.062,0.000
1743046824.787,0.000,-53.711,-58.105,-39.551,0.000
1743046824.791,0.000,-48.828,-52.246,-33.203,0.000
1743046824.795,0.000,-37.109,-47.852,-27.344,0.000
1743046824.799,-17.578,-27.832,-40.527,-23.438,0.000
1743046824.803,-16.602,-34.668,-37.109,-24.902,0.000
1743046824.807,-19.043,-48.340,-49.316,-29.297,0.000
1743046824.811,-13.672,-46.387,-51.758,-30.273,0.000
1743046824.815,-15.625,-42.969,-54.199,-30.762,0.000
1743046824.819,-26.367,-42.969,-61.035,-34.180,0.000
1743046824.822,-22.949,-36.621,-54.688,-31.738,0.000
1743046824.826,-16.602,-35.645,-61.035,-26.855,0.000
1743046824.830,-19.531,-41.992,-57.129,-24.414,0.000
1743046824.834,-18.555,-45.410,-33.203,-18.555,0.000
1743046824.838,-13.184,-42.969,-28.320,-11.719,0.000
1743046824.842,-11.719,-54.688,-29.297,-9.766,0.000
1743046824.846,-1.953,-54.199,-29.785,-5.859,0.000
1743046824.850,-8.789,-41.016,-41.016,-20.996,0.000
1743046824.854,-33.203,-46.387,-50.293,-47.852,0.000
1743046824.858,-46.875,-50.781,-60.059,-55.176,0.000
1743046824.862,-40.527,-42.969,-56.152,-44.922,0.000
1743046824.865,-25.391,-26.367,-41.504,-30.762,0.000
1743046824.869,-20.020,-23.926,-50.781,-32.227,0.000
1743046824.873,-16.113,-25.391,-51.270,-31.250,0.000
1743046824.877,-12.207,-17.090,-36.133,-24.414,0.000
1743046824.881,-17.578,-17.578,-41.016,-32.227,0.000
1743046824.885,-22.461,-25.391,-54.199,-35.156,0.000
1743046824.889,-26.367,-29.785,-52.734,-27.832,0.000
1743046824.893,-36.133,-29.785,-48.828,-33.691,0.000
1743046824.897,-39.551,-30.762,-54.199,-36.621,0.000
1743046824.901,-41.504,-29.785,-59.570,-33.203,0.000
1743046824.904,-40.527,-30.762,-55.664,-33.691,0.000
1743046824.908,-37.598,-30.273,-50.781,-29.785,0.000
1743046824.912,-34.180,-20.996,-48.340,-31.250,0.000
1743046824.916,-38.086,-20.996,-43.945,-36.621,0.000
1743046824.920,-38.574,-23.438,-43.945,-36.621,0.000
1743046824.924,-40.527,-33.691,-51.758,-43.457,0.000
1743046824.928,-38.574,-35.645,-50.781,-43.457,0.000
1743046824.932,-35.156,-27.344,-42.969,-37.109,0.000
1743046824.936,-40.527,-28.809,-42.480,-38.574,0.000
1743046824.940,-39.551,-25.391,-42.969,-41.016,0.000
1743046824.944,-35.645,-26.367,-40.527,-44.922,0.000
1743046824.947,-39.062,-26.367,-39.551,-41.016,0.000
1743046824.951,-36.133,-22.461,-48.340,-32.227,0.000
1743046824.955,-34.668,-30.273,-48.828,-30.762,0.000
1743046824.959,-30.762,-32.715,-43.945,-31.250,0.000
1743046824.963,-24.902,-28.809,-48.828,-33.203,0.000
1743046824.967,-34.180,-37.598,-52.734,-41.016,0.000
1743046824.971,-41.992,-41.992,-53.711,-44.434,0.000
1743046824.975,-35.156,-30.762,-45.898,-36.133,0.000
1743046824.979,-31.738,-24.902,-35.156,-25.879,0.000
1743046824.983,-38.574,-23.926,-40.039,-26.855,0.000
1743046824.987,-35.156,-18.066,-46.387,-28.320,0.000
1743046824.990,-32.715,-24.414,-42.969,-32.715,0.000
1743046824.994,-41.992,-29.297,-37.598,-41.016,0.000
1743046824.998,-45.898,-26.367,-35.645,-46.387,0.000
1743046825.002,-41.016,-33.691,-39.551,-45.898,0.000
1743046825.006,-42.969,-27.344,-37.109,-44.922,0.000
1743046825.010,-41.016,-25.879,-34.180,-47.852,0.000
1743046825.014,-32.227,-34.668,-34.668,-45.410,0.000
1743046825.018,-31.738,-28.809,-32.227,-40.039,0.000
1743046825.022,-36.133,-31.250,-34.180,-37.598,0.000
1743046825.026,-38.086,-35.645,-32.715,-36.621,0.000
1743046825.029,-36.621,-30.762,-31.250,-31.250,0.000
1743046825.033,-36.133,-27.832,0.000,-24.902,0.000
1743046825.037,-30.273,-25.391,0.000,-29.785,0.000
1743046825.041,-30.273,-22.461,0.000,-42.480,0.000
1743046825.045,-29.297,-25.391,0.000,-36.133,0.000
1743046825.049,-12.695,-18.555,0.000,-17.578,0.000
1743046825.053,-15.137,-16.602,0.000,-25.879,0.000
1743046825.057,-39.062,-30.273,0.000,-35.156,0.000
1743046825.061,-34.668,-37.109,0.000,-27.832,0.000
1743046825.065,-27.832,-29.297,0.000,-22.461,0.000
1743046825.069,-22.949,-21.973,0.000,-18.555,0.000
1743046825.072,-25.391,-33.203,0.000,-18.066,0.000
1743046825.076,-32.715,-38.086,0.000,-23.926,0.000
1743046825.080,-25.879,-27.344,-44.922,-23.926,0.000
1743046825.084,-20.020,-22.461,-43.945,-19.043,0.000
1743046825.088,-25.879,-26.855,-41.992,-26.855,0.000
1743046825.092,-31.738,-25.391,-37.109,-35.156,0.000
1743046825.096,-25.879,-24.414,-35.156,-31.250,0.000
1743046825.100,-14.648,-17.578,-30.762,-14.648,0.000
1743046825.104,-25.391,-22.461,-25.879,-14.648,0.000
1743046825.108,-47.363,-35.156,-21.973,-37.598,0.000
1743046825.112,-55.176,-30.762,-13.672,-37.109,0.000
1743046825.115,-54.688,-41.016,-14.160,-24.902,0.000
1743046825.119,-50.293,-44.434,-22.949,-29.785,0.000
1743046825.123,-54.688,-42.969,-25.391,-30.762,0.000
1743046825.127,0.000,-51.270,0.000,-26.367,0.000
1743046825.131,0.000,-51.758,0.000,-25.879,0.000
1743046825.135,0.000,-51.758,0.000,-29.297,0.000
1743046825.139,0.000,-43.945,0.000,-27.344,0.000
1743046825.143,0.000,-41.016,0.000,-21.973,0.000
1743046825.147,0.000,-41.016,0.000,-15.625,0.000
1743046825.151,0.000,-35.645,0.000,-13.672,0.000
1743046825.154,0.000,-35.645,0.000,-14.648,0.000
1743046825.158,0.000,-23.438,0.000,-4.883,0.000
1743046825.162,0.000,-13.184,0.000,3.906,0.000
1743046825.166,0.000,-34.668,0.000,-18.555,0.000
1743046825.170,0.000,-47.852,0.000,-32.715,0.000
1743046825.174,-33.691,-42.480,-12.695,-24.902,0.000
1743046825.178,-33.203,-47.852,0.977,-22.461,0.000
1743046825.182,-39.551,-48.340,1.465,-28.809,0.000
1743046825.186,-38.086,-45.410,-8.301,-29.297,0.000
1743046825.190,-27.344,-48.340,-13.184,-26.855,0.000
1743046825.194,-22.461,-43.457,-9.766,-27.832,0.000
1743046825.197,-28.320,-38.574,-13.672,-28.320,0.000
1743046825.201,-33.203,-35.156,-23.926,-25.391,0.000
1743046825.205,-34.180,-32.227,-14.648,-21.484,0.000
1743046825.209,-31.738,-34.668,-5.859,-21.973,0.000
1743046825.213,-27.344,-34.180,-31.250,-19.531,0.000
1743046825.217,-34.180,-41.504,-40.527,-25.879,0.000
1743046825.221,-38.086,-36.621,-34.668,-26.855,0.000
1743046825.225,-24.414,-36.133,-35.645,-17.090,0.000
1743046825.229,-28.320,-49.316,-39.062,-26.367,0.000
1743046825.233,-31.250,-41.504,-45.410,-32.227,0.000
1743046825.237,-26.367,-34.668,-38.574,-28.320,0.000
1743046825.240,-15.625,-24.902,-19.043,-23.438,0.000
1743046825.244,0.977,-17.090,-8.301,-8.301,0.000
1743046825.248,6.348,-21.484,-9.277,-4.395,0.000
1743046825.252,-16.113,-41.504,-30.762,-24.414,0.000
1743046825.256,-31.738,-42.969,-39.062,-30.762,0.000
1743046825.260,-25.391,-33.691,-28.320,-32.715,0.000
1743046825.264,-27.344,-41.992,-31.738,-45.410,0.000
1743046825.268,-31.738,-44.434,0.000,-47.363,0.000
1743046825.272,-30.273,-34.668,0.000,-36.133,0.000
1743046825.276,-33.203,-34.668,0.000,-38.574,0.000
1743046825.279,-16.602,-19.043,0.000,-31.250,0.000
1743046825.283,-8.789,-21.484,0.000,-17.090,0.000
1743046825.287,-20.020,-36.621,0.000,-20.996,0.000
1743046825.291,-18.555,-32.227,0.000,-24.902,0.000
1743046825.295,-21.973,-38.574,0.000,-26.367,0.000
1743046825.299,-29.785,-45.410,0.000,-39.551,0.000
1743046825.303,-25.879,-34.668,0.000,-33.203,0.000
1743046825.307,-22.461,-21.973,0.000,-15.137,0.000
1743046825.311,-37.598,-35.156,0.000,-29.785,0.000
1743046825.315,-26.367,-35.645,-48.828,-27.832,0.000
1743046825.319,-11.230,-36.133,-50.781,-19.531,0.000
1743046825.322,-13.672,-32.715,-53.223,-20.996,0.000
1743046825.326,-13.184,-34.668,-45.898,-17.578,0.000
1743046825.330,-21.484,-55.176,-48.340,-21.484,0.000
1743046825.334,-20.508,-50.293,-51.270,-16.602,0.000
1743046825.338,-14.648,-24.902,-40.039,-8.789,0.000
1743046825.342,-21.484,-26.367,-33.691,-11.719,0.000
1743046825.346,-20.508,-30.762,-36.133,-18.066,0.000
1743046825.350,-9.277,-18.066,-45.898,-17.090,0.000
1743046825.354,-0.977,-8.789,-41.992,-1.953,0.000
1743046825.358,-22.461,-20.508,-37.109,-13.672,0.000
1743046825.362,-50.781,-37.598,-41.016,-36.621,0.000
1743046825.365,-59.570,-41.992,-42.480,-38.574,0.000
1743046825.369,-49.805,-40.527,-40.527,-31.250,0.000
1743046825.373,-41.016,-41.992,-42.480,-30.273,0.000
1743046825.377,-40.527,-40.039,-32.715,-27.832,0.000
1743046825.381,-32.715,-21.973,-17.578,-20.020,0.000
1743046825.385,-34.668,-32.227,-33.203,-30.762,0.000
1743046825.389,-36.621,-44.922,-45.410,-35.645,0.000
1743046825.393,-38.574,-33.203,-40.527,-38.086,0.000
1743046825.397,-41.016,-29.785,-39.551,-31.250,0.000
1743046825.401,-27.344,-31.738,-31.250,-21.973,0.000
1743046825.404,-22.949,-34.180,-30.762,-28.320,0.000
1743046825.408,0.000,-36.621,-35.645,-26.855,0.000
1743046825.412,0.000,-44.434,-36.133,-27.832,0.000
1743046825.416,0.000,-44.434,-40.039,-30.273,0.000
1743046825.420,0.000,-39.062,-47.363,-35.645,0.000
1743046825.424,0.000,-38.086,-47.852,-34.180,0.000
1743046825.428,0.000,-37.598,-45.898,-32.715,0.000
1743046825.432,0.000,-31.738,-35.156,-20.020,0.000
1743046825.436,0.000,-45.410,-34.180,-28.809,0.000
1743046825.440,0.000,-51.758,-39.062,-39.551,0.000
1743046825.444,0.000,-44.434,-38.574,-33.203,0.000
1743046825.447,0.000,-44.434,-43.945,-29.297,0.000
1743046825.451,0.000,-38.086,-43.945,-22.949,0.000
1743046825.455,-36.621,-43.457,-49.805,-26.855,0.000
1743046825.459,-30.762,-45.410,-52.246,-28.320,0.000
1743046825.463,-32.715,-40.527,-46.387,-21.484,0.000
1743046825.467,-39.062,-39.062,-36.621,-19.043,0.000
1743046825.471,-29.297,-36.621,-30.762,-16.602,0.000
1743046825.475,-23.438,-30.273,-31.738,-20.996,0.000
1743046825.479,-28.320,-37.598,-37.109,-27.344,0.000
1743046825.483,-34.180,-44.922,-40.039,-25.391,0.000
1743046825.487,-34.180,-39.551,-43.945,-25.391,0.000
1743046825.490,-30.762,-39.062,-44.434,-23.438,0.000
1743046825.494,-29.785,-34.180,-38.574,-19.531,0.000
1743046825.498,-27.344,-30.273,-38.574,-19.043,0.000
1743046825.502,-25.879,-30.273,-44.922,-20.996,0.000
1743046825.506,-22.949,-17.578,-33.691,-16.602,0.000
1743046825.510,-18.555,-20.020,-31.738,-17.090,0.000
1743046825.514,-19.043,-33.203,-34.180,-19.531,0.000
1743046825.518,-22.461,-34.180,-26.855,-20.508,0.000
1743046825.522,-26.367,-31.250,-24.902,-25.879,0.000
1743046825.526,-24.414,-34.180,-29.297,-30.762,0.000
1743046825.529,-19.531,-27.832,-20.508,-25.879,0.000
1743046825.533,-18.555,-23.926,-16.602,-22.949,0.000
1743046825.537,-38.574,-41.992,-33.691,-34.180,0.000
1743046825.541,-32.227,-37.109,-32.227,-32.227,0.000
1743046825.545,-22.949,-36.621,-28.320,-32.715,0.000
1743046825.549,-32.715,-41.504,-36.133,-41.504,0.000
1743046825.553,-38.086,-35.156,-37.109,-45.410,0.000
1743046825.557,-38.574,-28.320,-38.574,-43.457,0.000
1743046825.561,-35.156,-26.855,-40.039,-39.551,0.000
1743046825.565,-32.715,-21.973,-36.133,-39.551,0.000
1743046825.569,-22.461,-13.184,-37.598,-36.133,0.000
1743046825.572,-17.578,-25.391,-41.992,-33.203,0.000
1743046825.576,-28.809,-41.504,-31.738,-30.762,0.000
1743046825.580,-28.320,-36.621,-24.902,-26.855,0.000
1743046825.584,-22.461,-35.645,-32.715,-26.855,0.000
1743046825.588,-20.020,-30.273,-35.156,-19.043,0.000
1743046825.592,-32.227,-26.367,-33.691,-24.902,0.000
1743046825.596,-27.832,-17.578,-24.414,-28.809,0.000
1743046825.600,-20.996,-12.207,-17.578,-24.414,0.000
1743046825.604,-34.180,-24.414,-30.273,-31.738,0.000
1743046825.608,-30.762,-29.297,-37.598,-34.180,0.000
1743046825.612,-25.879,-32.227,-34.180,-27.344,0.000
1743046825.615,-31.250,-32.227,-41.992,-28.320,0.000
1743046825.619,-28.809,-22.949,-41.504,-27.344,0.000
1743046825.623,-20.020,-23.438,-34.668,-27.344,0.000
1743046825.627,-19.043,-28.320,-31.250,-30.273,0.000
1743046825.631,-29.785,-25.391,-27.832,-25.879,0.000
1743046825.635,-35.645,-33.203,-30.762,-30.273,0.000
1743046825.639,-36.133,-33.691,-27.832,-37.598,0.000
1743046825.643,-36.133,-27.344,-27.344,-32.227,0.000
1743046825.647,-39.551,-30.273,-36.621,-34.180,0.000
1743046825.651,-38.574,-23.926,-28.320,-35.645,0.000
1743046825.654,-28.320,-17.090,-26.367,-35.156,0.000
1743046825.658,-22.461,-19.531,-41.504,-36.133,0.000
1743046825.662,-27.344,-20.508,-43.457,-40.527,0.000
1743046825.666,-39.062,-26.855,-40.039,-42.969,0.000
1743046825.670,-43.945,-36.621,-38.086,-36.621,0.000
1743046825.674,-37.598,-33.203,-36.133,-33.691,0.000
1743046825.678,-32.715,-28.320,-31.738,-33.203,0.000
1743046825.682,-29.297,-37.109,-32.715,-31.738,0.000
1743046825.686,-30.762,-38.574,-35.645,-27.832,0.000
1743046825.690,-35.156,-34.180,-37.598,-22.949,0.000
1743046825.694,-38.086,-44.434,-34.180,-26.855,0.000
1743046825.697,-34.180,-38.086,-26.367,-25.879,0.000
1743046825.701,-25.391,-25.391,-24.414,-20.020,0.000
1743046825.705,-26.367,-23.438,-27.344,-24.414,0.000
1743046825.709,-33.203,-19.043,-28.809,-28.320,0.000
1743046825.713,-46.875,-25.879,-36.621,-35.156,0.000
1743046825.717,-52.246,-36.621,-41.016,-45.898,0.000
1743046825.721,-48.340,-32.715,-37.598,-48.828,0.000
1743046825.725,-50.781,-32.715,-37.598,-46.875,0.000
1743046825.729,-49.316,-32.715,-41.016,-41.504,0.000
1743046825.733,-44.434,-28.809,-39.551,-38.086,0.000
1743046825.737,-45.898,-32.715,-37.109,-41.504,0.000
1743046825.740,-44.922,-33.691,-35.156,-38.574,0.000
1743046825.744,-41.016,-27.344,-33.691,-36.133,0.000
1743046825.748,-38.574,-27.832,-36.133,-35.156,0.000
1743046825.752,-36.621,-28.320,-35.645,-31.250,0.000
1743046825.756,-33.203,-20.020,-30.762,-22.949,0.000
1743046825.760,-34.180,-17.578,-31.738,-24.414,0.000
1743046825.764,-28.320,-22.461,-40.039,-27.344,0.000
1743046825.768,-21.484,-22.461,-40.527,-17.578,0.000
1743046825.772,-20.020,-20.996,-43.945,-15.625,0.000
1743046825.776,-19.043,-19.043,-37.109,-15.625,0.000
1743046825.779,-22.461,-21.973,-30.273,-19.043,0.000
1743046825.783,-20.020,-28.320,-36.621,-19.531,0.000
1743046825.787,-25.391,-22.461,-39.551,-19.043,0.000
1743046825.791,-36.621,-18.066,-41.504,-26.855,0.000
1743046825.795,-30.273,-25.391,-39.062,-27.832,0.000
1743046825.799,-31.250,-28.320,-36.621,-28.809,0.000
1743046825.803,-37.109,-18.066,-37.109,-35.645,0.000
1743046825.807,-27.832,-18.066,-38.086,-30.762,0.000
1743046825.811,-30.273,-25.879,-43.945,-26.367,0.000
1743046825.815,-44.434,-36.621,-53.223,-39.062,0.000
1743046825.819,-44.922,-42.480,-49.316,-42.480,0.000
1743046825.822,-33.691,-33.203,-38.574,-31.738,0.000
1743046825.826,-38.574,-34.180,-35.645,-35.156,0.000
1743046825.830,-46.387,-35.645,-40.039,-41.992,0.000
1743046825.834,-38.574,-31.250,-45.898,-39.062,0.000
1743046825.838,-41.992,-28.320,-34.180,-32.715,0.000
1743046825.842,-39.062,-24.902,-26.367,-33.691,0.000
1743046825.846,-34.668,-29.785,-33.203,-41.016,0.000
1743046825.850,-41.504,-34.668,-40.039,-47.852,0.000
1743046825.854,-43.457,-38.086,-37.109,-42.480,0.000
1743046825.858,-38.574,-43.945,-31.250,-37.598,0.000
1743046825.862,-34.180,-42.480,-28.320,-36.621,0.000
1743046825.865,-36.133,-41.016,-32.227,-35.645,0.000
1743046825.869,-34.668,-39.062,-42.969,-29.297,0.000
1743046825.873,-26.855,-33.691,-46.875,-23.438,0.000
1743046825.877,0.000,-33.203,0.000,-27.344,0.000
1743046825.881,0.000,-27.832,0.000,-29.785,0.000
1743046825.885,0.000,-24.414,0.000,-32.227,0.000
1743046825.889,0.000,-25.391,0.000,-24.902,0.000
1743046825.893,0.000,-20.020,0.000,-17.578,0.000
1743046825.897,0.000,-19.531,0.000,-20.020,0.000
1743046825.901,0.000,-28.809,0.000,-11.719,0.000
1743046825.904,0.000,-28.809,0.000,-9.766,0.000
1743046825.908,0.000,-25.391,0.000,-29.785,0.000
1743046825.912,0.000,-22.949,0.000,-43.945,0.000
1743046825.916,0.000,-19.043,0.000,-40.527,0.000
1743046825.920,0.000,-17.578,0.000,-35.156,0.000
1743046825.924,-23.438,-17.090,-53.223,-28.809,0.000
1743046825.928,-21.484,-8.301,-53.223,-24.902,0.000
1743046825.932,-23.926,-1.465,-60.059,-25.879,0.000
1743046825.936,-17.090,-2.441,-67.383,-26.855,0.000
1743046825.940,-7.812,0.488,-65.918,-27.344,0.000
1743046825.944,-12.207,4.395,-62.500,-23.438,0.000
1743046825.947,-6.348,-0.488,-63.965,-24.414,0.000
1743046825.951,3.906,-11.230,-63.477,-29.297,0.000
1743046825.955,-6.836,-13.672,-60.547,-30.762,0.000
1743046825.959,-20.508,-7.324,-55.664,-26.367,0.000
1743046825.963,-18.066,-2.930,-51.758,-22.949,0.000
1743046825.967,-10.254,-9.766,-57.129,-26.367,0.000
1743046825.971,-8.301,-12.695,-62.988,-28.809,0.000
1743046825.975,-10.742,-15.625,-57.617,-24.414,0.000
1743046825.979,-13.184,-19.531,-52.734,-20.996,0.000
1743046825.983,-15.137,-21.484,-51.270,-25.879,0.000
1743046825.987,-17.090,-24.414,-51.758,-26.855,0.000
1743046825.990,-14.160,-18.555,-49.805,-23.438,0.000
1743046825.994,-6.836,-14.648,-40.039,-26.367,0.000
1743046825.998,-14.648,-18.555,-50.781,-34.668,0.000
1743046826.002,-19.531,-13.184,-60.059,-26.367,0.000
1743046826.006,-13.672,-8.789,-44.922,-18.066,0.000
1743046826.010,-15.625,-17.090,-37.598,-22.949,0.000
1743046826.014,-15.137,-21.484,-34.180,-18.066,0.000
1743046826.018,-4.883,-14.160,-28.809,0.000,0.000
1743046826.022,-3.906,-17.578,-37.109,0.000,0.000
1743046826.026,-7.324,-22.949,-42.969,0.000,0.000
1743046826.029,-6.836,-17.090,-38.086,0.000,0.000
1743046826.033,0.488,-16.602,-37.109,0.000,0.000
1743046826.037,2.441,-14.160,-34.668,0.000,0.000
1743046826.041,0.977,-4.395,-34.668,0.000,0.000
1743046826.045,-1.953,-15.625,-39.551,0.000,0.000
1743046826.049,-17.578,-27.832,-39.551,0.000,0.000
1743046826.053,-22.949,-29.785,-34.180,0.000,0.000
1743046826.057,-18.066,-23.926,-26.367,0.000,0.000
1743046826.061,-21.973,-17.578,-20.996,0.000,0.000
1743046826.065,0.000,-21.973,-23.926,-20.996,0.000
1743046826.069,0.000,-20.020,-27.832,-24.902,0.000
1743046826.072,0.000,-16.113,-29.297,-26.855,0.000
1743046826.076,0.000,-13.672,-32.227,-27.344,0.000
1743046826.080,0.000,-18.066,-31.738,-24.414,0.000
1743046826.084,0.000,-20.020,-28.320,-23.926,0.000
1743046826.088,0.000,-27.344,-34.668,-20.020,0.000
1743046826.092,0.000,-36.621,-34.180,-16.113,0.000
1743046826.096,0.000,-28.809,-23.926,-17.578,0.000
1743046826.100,0.000,-22.949,-21.973,-14.648,0.000
1743046826.104,0.000,-23.438,-23.438,-15.625,0.000
1743046826.108,0.000,-29.297,-22.949,-18.555,0.000
1743046826.112,-14.160,-29.785,-17.090,-17.090,0.000
1743046826.115,-6.836,-25.391,-15.137,-15.625,0.000
1743046826.119,-14.160,-31.738,-28.809,-20.020,0.000
1743046826.123,-24.414,-33.691,-35.156,-22.949,0.000
1743046826.127,-26.367,-27.832,-36.133,-22.461,0.000
1743046826.131,-30.273,-25.391,-36.621,-23.438,0.000
1743046826.135,-33.203,-29.297,-33.203,-26.855,0.000
1743046826.139,-33.691,-38.086,-29.297,-33.691,0.000
1743046826.143,-40.527,-41.504,-31.738,-41.016,0.000
1743046826.147,-45.410,-40.527,-37.109,-46.875,0.000
1743046826.151,-38.574,-33.203,-32.715,-46.387,0.000
1743046826.154,-32.715,-29.785,-35.156,-42.480,0.000
1743046826.158,0.000,-34.180,-47.363,0.000,0.000
1743046826.162,0.000,-34.668,-50.293,0.000,0.000
1743046826.166,0.000,-31.250,-43.945,0.000,0.000
1743046826.170,0.000,-28.320,-39.062,0.000,0.000
1743046826.174,0.000,-27.344,-31.738,0.000,0.000
1743046826.178,0.000,-24.414,-33.203,0.000,0.000
1743046826.182,0.000,-26.855,-41.504,0.000,0.000
1743046826.186,0.000,-27.344,-38.574,0.000,0.000
1743046826.190,0.000,-24.414,-33.203,0.000,0.000
1743046826.194,0.000,-31.738,-32.715,0.000,0.000
1743046826.197,0.000,-36.621,-31.250,0.000,0.000
1743046826.201,0.000,-37.598,-31.738,0.000,0.000
1743046826.205,-36.133,-33.691,0.000,-36.133,0.000
1743046826.209,-37.109,-29.297,0.000,-38.086,0.000
1743046826.213,-38.086,-29.297,0.000,-40.039,0.000
1743046826.217,-36.621,-27.832,0.000,-34.668,0.000
1743046826.221,-27.832,-26.855,0.000,-29.785,0.000
1743046826.225,-37.109,-31.250,0.000,-37.598,0.000
1743046826.229,-39.551,-39.551,0.000,-46.875,0.000
1743046826.233,-25.879,-49.805,0.000,-44.922,0.000
1743046826.237,-28.809,-47.363,0.000,-43.945,0.000
1743046826.240,-37.598,-31.738,0.000,-42.480,0.000
1743046826.244,-39.551,-26.855,0.000,-40.039,0.000
1743046826.248,-39.551,-31.250,0.000,-44.434,0.000
1743046826.252,-36.621,-36.133,-35.645,-46.387,0.000
1743046826.256,-32.227,-34.180,-37.598,-45.898,0.000
1743046826.260,-30.273,-27.344,-32.227,-35.645,0.000
1743046826.264,-28.809,-24.414,-29.297,-30.762,0.000
1743046826.268,-32.227,-26.367,-33.691,-35.645,0.000
1743046826.272,-39.062,-19.043,-37.598,-32.715,0.000
1743046826.276,-41.016,-22.461,-37.598,-30.273,0.000
1743046826.279,-41.016,-33.691,-35.156,-33.203,0.000
1743046826.283,-38.574,-28.809,-33.691,-28.809,0.000
1743046826.287,-34.668,-31.250,-33.203,-27.832,0.000
1743046826.291,-33.203,-38.086,-37.109,-31.738,0.000
1743046826.295,-38.574,-48.828,-41.504,-37.109,0.000
1743046826.299,-32.715,-47.852,-37.598,-37.109,0.000
1743046826.303,-28.809,-31.250,-34.668,-28.809,0.000
1743046826.307,-28.320,-38.574,-25.879,-26.855,0.000
1743046826.311,-30.762,-45.898,-26.855,-36.133,0.000
1743046826.315,-28.320,-41.992,-34.668,-36.621,0.000
1743046826.319,-15.625,-29.785,-32.715,-21.973,0.000
1743046826.322,-20.508,-29.785,-15.625,-28.320,0.000
1743046826.326,-40.527,-40.039,-4.883,-46.875,0.000
1743046826.330,-40.527,-42.480,-6.836,-48.828,0.000
1743046826.334,-45.898,-50.781,-8.789,-45.410,0.000
1743046826.338,-65.430,-58.105,-15.137,-57.617,0.000
1743046826.342,-67.383,-54.199,-18.555,-58.594,0.000
1743046826.346,-63.965,-51.758,-16.602,-48.828,0.000
1743046826.350,-70.312,-53.223,-17.090,-57.617,0.000
1743046826.354,-71.777,-52.246,-19.043,-61.035,0.000
1743046826.358,-74.219,-52.246,-14.648,-59.570,0.000
1743046826.362,-78.125,-51.270,-22.949,-65.918,0.000
1743046826.365,-71.289,-56.152,-29.785,-71.777,0.000
1743046826.369,-70.312,-60.059,-21.973,-69.336,0.000
1743046826.373,-61.035,-56.152,-14.160,-59.082,0.000
1743046826.377,-57.129,-52.734,-15.625,-58.594,0.000
1743046826.381,-68.848,-57.129,-19.531,-65.430,0.000
1743046826.385,-60.059,-55.664,-21.484,-63.965,0.000
1743046826.389,-53.223,-49.316,-19.043,-56.152,0.000
1743046826.393,-55.176,-49.805,-17.090,-50.293,0.000
1743046826.397,-50.781,-52.246,-20.020,-46.875,0.000
1743046826.401,-44.434,-51.758,-18.555,-41.992,0.000
1743046826.404,-38.086,-53.223,-25.879,-42.480,0.000
1743046826.408,-41.016,-54.199,-41.016,-47.363,0.000
1743046826.412,-42.969,-37.109,-31.738,-39.062,0.000
1743046826.416,-42.480,-30.762,-17.578,-29.785,0.000
1743046826.420,-45.410,-51.270,-23.438,-35.645,0.000
1743046826.424,-41.016,-52.734,-23.926,-37.598,0.000
1743046826.428,-37.598,-41.504,-18.555,-39.062,0.000
1743046826.432,-35.156,-41.016,-19.043,-36.133,0.000
1743046826.436,-33.203,-42.480,-23.926,-32.715,0.000
1743046826.440,-28.809,-37.598,-27.344,-32.715,0.000
1743046826.444,-28.809,-34.180,-24.902,-29.785,0.000
1743046826.447,-26.855,-36.133,-30.273,-27.832,0.000
1743046826.451,-20.020,-34.180,-34.180,-20.996,0.000
1743046826.455,-27.832,-33.203,-30.762,-25.879,0.000
1743046826.459,-41.016,-25.391,-31.250,-35.156,0.000
1743046826.463,-47.363,-21.973,-30.762,-39.551,0.000
1743046826.467,-56.641,-26.855,-26.855,-47.852,0.000
1743046826.471,-69.824,-32.227,-26.367,-62.012,0.000
1743046826.475,-90.332,-34.668,-23.438,-79.590,0.000
1743046826.479,-99.121,-35.156,-22.949,-88.867,0.000
1743046826.483,-104.492,-41.992,-29.297,-98.633,0.000
1743046826.487,-125.977,-44.922,-28.809,-109.863,0.000
1743046826.490,-132.812,-38.086,-18.555,-117.676,0.000
1743046826.494,-136.719,-30.762,-12.695,-121.094,0.000
1743046826.498,-152.832,-35.156,-28.809,-138.672,0.000
1743046826.502,-159.180,-33.691,-37.109,-153.809,0.000
1743046826.506,-156.250,-22.461,-26.367,-151.855,0.000
1743046826.510,-150.391,-15.625,-29.297,-150.391,0.000
1743046826.514,-148.438,-18.066,-38.574,-154.297,0.000
1743046826.518,-156.738,-24.414,-38.574,-155.762,0.000
1743046826.522,-158.691,-29.785,-33.203,-151.367,0.000
1743046826.526,-161.133,-32.715,-28.809,-152.832,0.000
1743046826.529,-154.297,-22.461,-22.461,-149.414,0.000
1743046826.533,-145.020,-26.367,-22.949,-151.367,0.000
1743046826.537,-139.160,-33.691,-37.598,-143.066,0.000
1743046826.541,-135.742,-25.879,-44.434,-125.977,0.000
1743046826.545,-129.395,-29.785,-38.574,-122.070,0.000
1743046826.549,-109.375,-32.715,-31.738,-114.258,0.000
1743046826.553,-88.867,-14.648,-21.973,-95.703,0.000
1743046826.557,-72.266,-12.207,-9.766,-76.660,0.000
1743046826.561,-64.941,-25.391,-14.160,-62.012,0.000
1743046826.565,-62.988,-28.809,-20.508,-61.523,0.000
1743046826.569,-51.758,-27.344,-33.691,-57.129,0.000
1743046826.572,-49.805,-40.039,-50.781,-55.176,0.000
1743046826.576,-45.898,-45.410,-36.133,-53.223,0.000
1743046826.580,-33.203,-35.645,-27.832,-39.062,0.000
1743046826.584,-20.020,-27.832,-27.832,-30.273,0.000
1743046826.588,-6.348,-17.578,-19.531,-21.973,0.000
1743046826.592,3.906,-10.742,-33.691,-8.301,0.000
1743046826.596,28.320,9.766,-26.367,12.695,0.000
1743046826.600,22.461,5.371,-24.414,9.766,0.000
1743046826.604,-9.766,-35.645,-36.133,-19.043,0.000
1743046826.608,-10.742,-44.434,-38.086,-19.043,0.000
1743046826.612,32.715,-23.438,-18.066,18.555,0.000
1743046826.615,49.805,-9.277,0.488,35.645,0.000
1743046826.619,11.719,-17.578,-27.344,4.395,0.000
1743046826.623,-16.113,-44.434,-54.199,-22.461,0.000
1743046826.627,-6.348,-50.293,-47.852,-16.113,0.000
1743046826.631,17.578,-25.391,-34.668,6.836,0.000
1743046826.635,23.438,-18.066,-42.969,10.254,0.000
1743046826.639,15.137,-32.227,-46.387,-7.812,0.000
1743046826.643,15.137,-33.203,-39.551,-4.395,0.000
1743046826.647,19.043,-22.949,-39.551,7.812,0.000
1743046826.651,39.062,-9.277,-26.367,29.297,0.000
1743046826.654,31.250,-30.273,-37.598,20.996,0.000
1743046826.658,14.160,-48.828,-51.270,1.953,0.000
1743046826.662,20.996,-44.434,-45.410,7.812,0.000
1743046826.666,19.531,-45.410,-46.387,9.766,0.000
1743046826.670,20.996,-42.969,-50.781,8.301,0.000
1743046826.674,33.203,-26.367,-44.922,20.996,0.000
1743046826.678,31.738,-22.461,-44.434,23.926,0.000
1743046826.682,15.137,-37.109,-49.316,13.184,0.000
1743046826.686,18.066,-32.715,-41.016,19.531,0.000
1743046826.690,28.320,-26.367,-39.551,22.461,0.000
1743046826.694,33.691,-20.020,-39.062,22.461,0.000
1743046826.697,26.855,-17.578,-43.945,23.926,0.000
1743046826.701,25.391,-20.996,-41.504,22.949,0.000
1743046826.705,26.367,-26.855,-32.715,21.484,0.000
1743046826.709,20.508,-26.855,-34.668,20.508,0.000
1743046826.713,21.973,-20.020,-36.621,20.508,0.000
1743046826.717,24.414,-27.344,-35.645,22.461,0.000
1743046826.721,26.367,-26.855,-28.809,25.391,0.000
1743046826.725,36.621,-18.066,-26.855,23.926,0.000
1743046826.729,29.785,-18.066,-33.691,24.902,0.000
1743046826.733,26.367,-20.508,-36.133,19.531,0.000
1743046826.737,29.785,-18.066,-36.133,15.625,0.000
1743046826.740,22.461,-12.695,-40.039,15.625,0.000
1743046826.744,18.066,-11.230,-37.598,17.090,0.000
1743046826.748,17.090,-18.555,-36.133,19.531,0.000
1743046826.752,21.973,-20.996,-42.480,26.367,0.000
1743046826.756,24.414,-16.602,-45.898,30.273,0.000
1743046826.760,16.113,-8.301,-48.828,17.090,0.000
1743046826.764,14.648,-3.418,-54.199,-1.465,0.000
1743046826.768,3.418,-7.324,-61.035,-14.648,0.000
1743046826.772,-13.672,-18.555,-65.918,-21.484,0.000
1743046826.776,-8.789,-21.484,-67.383,-14.160,0.000
1743046826.779,-1.953,-14.648,-68.848,-5.371,0.000
1743046826.783,-4.395,-13.672,-67.871,-2.930,0.000
1743046826.787,-9.766,-9.766,-65.918,-7.812,0.000
1743046826.791,-9.277,-1.953,-70.801,-8.301,0.000
1743046826.795,0.000,-4.395,-69.336,2.441,0.000
1743046826.799,6.348,-3.906,-54.199,6.348,0.000
1743046826.803,7.812,-8.301,-43.945,-0.977,0.000
1743046826.807,1.953,-10.742,-41.992,-2.441,0.000
1743046826.811,1.953,-6.836,-44.922,1.953,0.000
1743046826.815,4.395,-7.324,-46.875,-6.836,0.000
1743046826.819,11.230,-6.836,-38.574,-5.371,0.000
1743046826.822,12.207,-11.230,-33.203,2.441,0.000
1743046826.826,9.277,-10.742,-41.016,-3.418,0.000
1743046826.830,7.812,-9.766,-40.527,-5.371,0.000
1743046826.834,9.277,-6.836,-36.621,-5.859,0.000
1743046826.838,14.160,-5.371,-45.898,-20.020,0.000
1743046826.842,10.254,-15.625,-41.992,-26.855,0.000
1743046826.846,6.348,-15.625,-29.785,-28.320,0.000
1743046826.850,5.859,-13.184,-38.574,-31.738,0.000
1743046826.854,-10.254,-18.555,-46.387,-33.691,0.000
1743046826.858,-12.695,-15.625,-46.875,-27.344,0.000
1743046826.862,-2.441,-18.555,-52.734,-31.250,0.000
1743046826.865,-4.883,-29.297,-50.781,-36.133,0.000
1743046826.869,-19.043,-22.949,-37.109,-33.691,0.000
1743046826.873,-26.367,-21.484,-17.578,-37.598,0.000
1743046826.877,-23.926,-29.785,-15.137,-37.109,0.000
1743046826.881,-27.832,-26.367,-18.066,-34.180,0.000
1743046826.885,-35.645,-33.203,-14.160,-43.945,0.000
1743046826.889,-52.246,-49.805,-15.625,-59.082,0.000
1743046826.893,-57.129,-51.270,-18.555,-66.406,0.000
1743046826.897,-50.293,-46.875,-17.090,-63.965,0.000
1743046826.901,-53.711,-44.922,-16.602,-71.289,0.000
1743046826.904,-49.805,-42.480,-11.719,-72.266,0.000
1743046826.908,-51.758,-37.109,0.000,-61.523,0.000
1743046826.912,-63.477,-35.645,0.000,-63.965,0.000
1743046826.916,-57.617,-35.156,0.000,-63.965,0.000
1743046826.920,-48.340,-30.762,0.000,-64.453,0.000
1743046826.924,-62.012,-36.133,0.000,-79.102,0.000
1743046826.928,-70.801,-35.645,0.000,-85.938,0.000
1743046826.932,-74.707,-33.203,0.000,-83.984,0.000
1743046826.936,-95.703,-38.086,0.000,-99.609,0.000
1743046826.940,-112.793,-50.293,0.000,-115.723,0.000
1743046826.944,-119.141,-56.152,0.000,-116.699,0.000
1743046826.947,-144.531,-47.852,0.000,-134.277,0.000
1743046826.951,-157.227,-43.457,0.000,-150.879,0.000
1743046826.955,-152.344,-41.504,-11.719,-151.855,0.000
1743046826.959,-163.574,-27.344,-23.926,-160.156,0.000
1743046826.963,-178.711,-20.996,-26.367,-179.199,0.000
1743046826.967,-189.941,-35.156,-30.273,-195.801,0.000
1743046826.971,-195.312,-45.410,-38.574,-199.219,0.000
1743046826.975,-189.941,-34.180,-23.438,-195.312,0.000
1743046826.979,-189.941,-32.227,-20.020,-198.242,0.000
1743046826.983,-184.570,-40.039,-31.250,-196.289,0.000
1743046826.987,-176.270,-32.227,-28.320,-185.547,0.000
1743046826.990,-165.039,-26.367,-46.875,-175.781,0.000
1743046826.994,-146.484,-17.090,-65.918,-159.668,0.000
1743046826.998,-138.672,-12.695,-46.875,-156.250,0.000
1743046827.002,-140.625,-15.137,0.000,-153.809,0.000
1743046827.006,-141.602,-19.043,0.000,-143.066,0.000
1743046827.010,-135.254,-21.484,0.000,-138.672,0.000
1743046827.014,-99.609,-9.766,0.000,-111.816,0.000
1743046827.018,-77.148,-7.324,0.000,-87.891,0.000
1743046827.022,-74.219,-20.020,0.000,-80.566,0.000
1743046827.026,-59.570,-17.578,0.000,-62.500,0.000
1743046827.029,-54.688,-22.461,0.000,-49.805,0.000
1743046827.033,-49.316,-35.156,0.000,-44.922,0.000
1743046827.037,-31.738,-28.809,0.000,-33.203,0.000
1743046827.041,-13.184,-13.184,0.000,-17.578,0.000
1743046827.045,-10.742,-27.832,0.000,-12.207,0.000
1743046827.049,-14.160,-44.922,-20.508,-17.090,0.000
1743046827.053,-18.555,-47.852,-27.832,-22.461,0.000
1743046827.057,-13.184,-42.480,-20.996,-7.324,0.000
1743046827.061,0.000,-34.180,-12.207,9.766,0.000
1743046827.065,6.836,-33.691,-11.719,18.066,0.000
1743046827.069,17.090,-35.645,-27.344,27.832,0.000
1743046827.072,30.762,-27.832,-21.973,45.898,0.000
1743046827.076,24.902,-37.109,-11.719,47.852,0.000
1743046827.080,21.973,-46.875,-22.461,39.551,0.000
1743046827.084,20.996,-41.504,-15.137,43.945,0.000
1743046827.088,17.578,-36.621,-9.766,41.016,0.000
1743046827.092,18.555,-27.344,-19.043,40.039,0.000
1743046827.096,23.438,-25.879,-20.996,40.527,0.000
1743046827.100,28.809,-26.367,-17.578,34.668,0.000
1743046827.104,25.879,-27.832,-21.973,37.598,0.000
1743046827.108,25.879,-40.527,-30.273,41.992,0.000
1743046827.112,24.902,-41.504,-28.809,34.668,0.000
1743046827.115,21.973,-33.203,-24.902,29.785,0.000
1743046827.119,27.344,-32.227,-18.555,34.668,0.000
1743046827.123,25.879,-39.062,-13.184,35.645,0.000
1743046827.127,25.391,-37.598,-8.789,42.969,0.000
1743046827.131,34.180,-35.645,-7.324,47.363,0.000
1743046827.135,23.438,-42.969,-17.090,40.527,0.000
1743046827.139,11.230,-44.434,-22.461,26.855,0.000
1743046827.143,5.859,-45.410,-29.297,15.625,0.000
1743046827.147,9.277,-36.621,-32.715,25.391,0.000
1743046827.151,31.738,-16.113,-14.648,41.992,0.000
1743046827.155,28.320,-20.996,-20.508,31.738,0.000
1743046827.158,10.742,-39.551,-34.668,17.090,0.000
1743046827.162,17.578,-36.133,-27.832,23.438,0.000
1743046827.166,19.531,-28.809,-20.020,34.180,0.000
1743046827.170,23.926,-33.203,-22.461,42.969,0.000
1743046827.174,32.715,-37.598,-23.438,43.945,0.000
1743046827.178,47.363,-24.902,-12.207,48.828,0.000
1743046827.182,40.527,-17.090,-12.695,54.199,0.000
1743046827.186,24.902,-23.926,-11.230,50.293,0.000
1743046827.190,26.367,-25.879,-7.324,40.527,0.000
1743046827.194,24.902,-30.273,-12.207,32.227,0.000
1743046827.197,25.391,-32.715,-6.836,29.785,0.000
1743046827.201,27.344,-25.391,-7.812,30.273,0.000
1743046827.205,29.785,-21.484,-9.766,30.762,0.000
1743046827.209,28.320,-25.391,-0.488,24.902,0.000
1743046827.213,14.648,-22.461,-7.324,19.531,0.000
1743046827.217,18.066,-22.461,-14.160,17.578,0.000
1743046827.221,25.391,-24.414,-3.906,13.672,0.000
1743046827.225,14.160,-27.832,-1.953,10.742,0.000
1743046827.229,5.859,-28.809,-7.324,9.277,0.000
1743046827.233,5.859,-24.902,-7.812,3.906,0.000
1743046827.237,3.418,-19.043,-7.324,5.371,0.000
1743046827.240,0.977,-18.555,-8.301,5.859,0.000
1743046827.244,-1.953,-23.438,-19.043,-3.418,0.000
1743046827.248,-3.906,-21.973,-20.020,-12.207,0.000
1743046827.252,0.977,-18.555,-5.859,-8.789,0.000
1743046827.256,11.230,-8.789,4.883,8.301,0.000
1743046827.260,20.508,-2.930,0.977,12.695,0.000
1743046827.264,-9.277,-18.066,-13.672,-6.836,0.000
1743046827.268,-21.484,-20.996,-14.648,-19.531,0.000
1743046827.272,-0.977,-12.695,-10.254,-15.137,0.000
1743046827.276,-15.625,-24.902,-16.113,-20.020,0.000
1743046827.280,-24.414,-30.762,-22.461,-20.996,0.000
1743046827.283,-9.766,-22.949,-15.625,-8.301,0.000
1743046827.287,-13.184,-24.902,-13.672,-10.742,0.000
1743046827.291,-19.531,-20.508,-16.602,-10.742,0.000
1743046827.295,-23.438,-19.531,-24.414,-16.113,0.000
1743046827.299,-24.902,-29.297,-30.762,-21.484,0.000
1743046827.303,-24.414,-20.996,-29.785,-16.113,0.000
1743046827.307,-31.250,-20.996,-21.973,-11.719,0.000
1743046827.311,-33.203,-31.250,-27.832,-20.508,0.000
1743046827.315,-20.996,-34.180,-32.227,-30.273,0.000
1743046827.319,-4.395,-27.832,-22.461,-28.320,0.000
1743046827.322,-1.465,-23.438,-26.855,-22.949,0.000
1743046827.326,-5.371,-20.508,-31.250,-20.996,0.000
1743046827.330,-8.301,-12.695,-20.508,-19.531,0.000
1743046827.334,-13.184,-16.113,-17.578,-19.531,0.000
1743046827.338,-18.066,-27.344,-20.020,-20.508,0.000
1743046827.342,-14.160,-25.391,-20.508,-15.137,0.000
1743046827.346,-12.207,-22.949,-27.344,-13.184,0.000
1743046827.350,-25.391,-23.438,-32.715,-22.461,0.000
1743046827.354,-31.250,-29.785,-29.785,-33.203,0.000
1743046827.358,-30.762,-38.086,-29.785,-33.691,0.000
1743046827.362,-32.227,-41.016,-48.340,-31.250,0.000
1743046827.365,-31.250,-41.504,-43.945,-33.203,0.000
1743046827.369,-34.668,-42.480,-21.973,-39.551,0.000
1743046827.373,-41.992,-40.039,-16.602,-40.527,0.000
1743046827.377,-36.621,-38.574,-20.996,-41.016,0.000
1743046827.381,-37.109,-32.227,-26.367,-37.109,0.000
1743046827.385,-52.734,-28.320,-32.227,-34.668,0.000
1743046827.389,-42.969,-25.879,-24.902,-26.367,0.000
1743046827.393,-37.109,-21.973,-23.926,-24.414,0.000
1743046827.397,-49.316,-28.320,-31.250,-39.551,0.000
1743046827.401,-35.156,-38.574,-31.738,-39.062,0.000
1743046827.405,-35.156,-45.898,-38.086,-27.344,0.000
1743046827.408,-44.922,-48.340,-46.875,-28.320,0.000
1743046827.412,-35.645,-39.062,-41.992,-29.785,0.000
1743046827.416,-38.086,-30.762,-30.762,-32.227,0.000
1743046827.420,-40.039,-28.320,-28.320,-30.762,0.000
1743046827.424,-37.109,-33.203,-43.457,-30.273,0.000
1743046827.428,-38.574,-31.250,-45.898,-33.203,0.000
1743046827.432,-33.203,-28.320,-32.715,-29.785,0.000
1743046827.436,-27.344,-30.273,-29.297,-28.809,0.000
1743046827.440,-40.527,-27.832,-28.809,-28.320,0.000
1743046827.444,-47.852,-25.391,-32.227,-23.926,0.000
1743046827.447,-25.879,-31.250,-39.551,-26.367,0.000
1743046827.451,-20.996,-36.621,-36.133,-27.344,0.000
1743046827.455,-20.508,-32.715,-33.691,-21.973,0.000
1743046827.459,-19.531,-31.738,-36.621,-23.926,0.000
1743046827.463,-18.555,-22.949,-33.203,-16.113,0.000
1743046827.467,-12.695,-24.902,-34.180,-12.695,0.000
1743046827.471,0.000,-44.434,-41.504,-26.367,0.000
1743046827.475,0.000,-49.805,-38.086,-34.668,0.000
1743046827.479,0.000,-43.457,-33.691,-27.832,0.000
1743046827.483,0.000,-41.992,-33.691,-17.578,0.000
1743046827.487,0.000,-46.387,-28.809,-10.742,0.000
1743046827.490,0.000,-33.691,-22.949,-9.766,0.000
1743046827.494,0.000,-31.738,-24.414,-10.742,0.000
1743046827.498,0.000,-38.574,-29.297,-8.789,0.000
1743046827.502,0.000,-38.574,-25.391,-7.324,0.000
1743046827.506,0.000,-38.574,-20.020,-10.742,0.000
1743046827.510,0.000,-42.969,-24.902,-14.648,0.000
1743046827.514,0.000,-40.527,-28.320,-8.301,0.000
1743046827.518,-30.273,-35.156,-29.297,-7.812,0.000
1743046827.522,-44.922,-31.250,-37.598,-6.836,0.000
1743046827.526,-42.480,-31.738,-36.621,1.953,0.000
1743046827.530,-35.156,-35.156,-25.391,-2.930,0.000
1743046827.533,-32.715,-34.668,-30.273,-11.230,0.000
1743046827.537,-39.062,-28.809,-31.250,-10.254,0.000
1743046827.541,-32.715,-24.902,-24.902,-1.953,0.000
1743046827.545,-27.832,-35.156,-24.414,-6.348,0.000
1743046827.549,-33.691,-36.133,-21.973,-7.812,0.000
1743046827.553,-23.926,-31.250,-17.578,-5.371,0.000
1743046827.557,-24.902,-28.809,-15.625,-16.113,0.000
1743046827.561,-9.277,-32.715,-17.090,-17.090,0.000
1743046827.565,-20.508,-31.738,-14.160,-15.625,0.000
1743046827.569,-10.742,-31.738,-14.648,-12.695,0.000
1743046827.572,-15.137,-33.203,-19.043,-9.277,0.000
1743046827.576,-19.531,-27.832,-16.602,-4.395,0.000
1743046827.580,-20.020,-35.156,-17.090,-10.742,0.000
1743046827.584,-20.020,-28.809,-26.855,-18.066,0.000
1743046827.588,-29.785,-26.855,-24.902,-6.348,0.000
1743046827.592,-25.391,-42.480,-17.578,-3.418,0.000
1743046827.596,-25.391,-45.898,-17.090,-2.930,0.000
1743046827.600,-30.273,-44.922,-14.648,-2.441,0.000
1743046827.604,-35.645,-41.016,-18.066,-16.602,0.000
1743046827.608,-31.250,-33.203,-19.531,-19.043,0.000
1743046827.612,0.000,-26.367,-18.066,-10.742,0.000
1743046827.615,0.000,-30.273,-19.043,-6.348,0.000
1743046827.619,0.000,-31.738,-15.137,0.488,0.000
1743046827.623,0.000,-29.785,-20.508,5.859,0.000
1743046827.627,0.000,-35.156,-26.367,6.836,0.000
1743046827.631,0.000,-36.621,-19.531,-2.930,0.000
1743046827.635,0.000,-33.691,-21.973,-15.625,0.000
1743046827.639,0.000,-33.691,-20.020,7.812,0.000
1743046827.643,0.000,-35.156,-17.578,22.461,0.000
1743046827.647,0.000,-27.832,-25.879,12.695,0.000
1743046827.651,0.000,-24.414,-19.043,17.090,0.000
1743046827.655,0.000,-37.598,-13.672,20.996,0.000
1743046827.658,5.859,-40.527,-21.973,10.254,0.000
1743046827.662,0.488,-38.086,-23.926,4.883,0.000
1743046827.666,-14.648,-42.969,-28.809,-7.324,0.000
1743046827.670,-48.828,-42.480,-30.273,-27.344,0.000
1743046827.674,-57.129,-43.945,-25.391,-11.719,0.000
1743046827.678,-47.363,-45.898,-22.461,-8.789,0.000
1743046827.682,-45.410,-45.898,-47.363,-32.227,0.000
1743046827.686,-52.734,-49.316,-63.965,-35.156,0.000
1743046827.690,-48.340,-47.852,-40.527,-25.391,0.000
1743046827.694,-65.918,-50.781,-24.414,-42.480,0.000
1743046827.697,-55.664,-49.805,-28.320,-70.312,0.000
1743046827.701,-6.836,-38.086,-37.109,-74.219,0.000
1743046827.705,-13.672,-39.551,-48.828,-92.285,0.000
1743046827.709,-25.879,-51.270,-53.711,-108.887,0.000
1743046827.713,-6.348,-53.711,-40.527,-64.453,0.000
1743046827.717,-17.578,-47.363,-31.738,-32.227,0.000
1743046827.721,-60.547,-46.875,-35.156,-36.133,0.000
1743046827.725,-80.078,-41.504,-31.250,-54.199,0.000
1743046827.729,-55.176,-25.391,-48.828,-56.152,0.000
1743046827.733,-47.363,-18.066,-79.102,-46.875,0.000
1743046827.737,-62.500,-33.691,-84.961,-51.270,0.000
1743046827.740,-44.922,-38.086,-67.383,-41.016,0.000
1743046827.744,-20.020,-30.762,-72.266,-39.062,0.000
1743046827.748,-37.598,-20.020,-81.055,-33.203,0.000
1743046827.752,-72.754,-21.484,-70.312,-34.180,0.000
1743046827.756,-64.453,-33.691,-54.199,-65.430,0.000
1743046827.760,-72.266,-34.180,-40.527,-102.539,0.000
1743046827.764,-70.801,-35.156,-43.945,-98.633,0.000
1743046827.768,-50.781,-34.668,-58.594,-101.562,0.000
1743046827.772,-40.527,-30.273,-67.383,-90.332,0.000
1743046827.776,-45.410,-49.805,-68.359,-83.008,0.000
1743046827.780,-35.645,-54.688,-81.055,-65.918,0.000
1743046827.783,-35.156,-30.273,-91.309,-47.363,0.000
1743046827.787,-59.570,-32.715,-65.918,-49.805,0.000
1743046827.791,-29.297,-44.922,-50.293,-44.434,0.000
1743046827.795,-42.480,-38.086,-52.734,-34.668,0.000
1743046827.799,-60.547,-33.203,-53.223,-48.340,0.000
1743046827.803,-48.340,-38.574,-53.223,-61.035,0.000
1743046827.807,-46.387,-37.598,-37.109,-45.410,0.000
1743046827.811,-29.297,-40.527,-53.711,-39.062,0.000
1743046827.815,-18.066,-26.855,-72.266,-24.414,0.000
1743046827.819,-10.742,-7.812,-53.711,-6.836,0.000
1743046827.822,-13.672,-22.461,-51.270,-18.066,0.000
1743046827.826,-45.410,-37.109,-50.293,-46.387,0.000
1743046827.830,-57.129,-39.551,-33.691,-45.410,0.000
1743046827.834,-65.430,-48.340,-26.367,-47.363,0.000
1743046827.838,-71.777,-40.039,-29.785,-53.711,0.000
1743046827.842,-69.336,-26.855,-38.574,-49.805,0.000
1743046827.846,0.000,-27.344,-33.691,-61.523,0.000
1743046827.850,0.000,-31.250,-33.203,-85.449,0.000
1743046827.854,0.000,-27.832,-38.086,-106.934,0.000
1743046827.858,0.000,-24.902,-30.762,-124.023,0.000
1743046827.862,0.000,-24.414,-30.762,-141.602,0.000
1743046827.865,0.000,-22.949,-43.457,-159.668,0.000
1743046827.869,0.000,-15.625,-42.969,-163.574,0.000
1743046827.873,0.000,-18.555,-39.062,-170.898,0.000
1743046827.877,0.000,-21.973,-31.738,-173.828,0.000
1743046827.881,0.000,-16.113,-41.016,-166.016,0.000
1743046827.885,0.000,-4.883,-54.688,-169.922,0.000
1743046827.889,0.000,-3.906,-42.480,-165.039,0.000
1743046827.893,-148.926,-6.348,-46.387,-143.555,0.000
1743046827.897,-133.301,3.418,-38.574,-130.371,0.000
1743046827.901,-130.859,-2.441,-28.809,-129.883,0.000
1743046827.905,-119.629,-10.742,-39.551,-118.164,0.000
1743046827.908,-101.562,-6.348,-53.223,-101.562,0.000
1743046827.912,-72.754,0.977,-46.875,-92.285,0.000
1743046827.916,-54.199,0.000,-46.387,-78.125,0.000
1743046827.920,-51.758,-7.324,-58.594,-63.477,0.000
1743046827.924,-46.387,-7.812,-51.270,-50.781,0.000
1743046827.928,-39.062,-6.348,-40.039,-46.387,0.000
1743046827.932,-23.438,-4.395,-35.645,-40.039,0.000
1743046827.936,-35.645,-6.836,-38.086,-35.156,0.000
1743046827.940,-29.785,-13.184,-46.875,-32.715,0.000
1743046827.944,-25.879,-18.066,-55.664,-26.855,0.000
1743046827.947,-34.180,-22.461,-62.012,-30.273,0.000
1743046827.951,-20.508,-24.902,-52.246,-26.855,0.000
1743046827.955,-23.926,-25.879,-43.945,-25.879,0.000
1743046827.959,-17.090,-20.020,-39.062,-20.996,0.000
1743046827.963,-3.418,-25.879,-41.992,-11.719,0.000
1743046827.967,-2.441,-41.016,-42.969,-5.371,0.000
1743046827.971,-9.277,-41.992,-36.621,2.441,0.000
1743046827.975,-16.113,-38.086,-37.598,-4.883,0.000
1743046827.979,-13.184,-42.480,-39.551,-6.836,0.000
1743046827.983,-7.324,-47.852,-48.828,-6.348,0.000
1743046827.987,0.000,-46.875,-41.016,0.977,0.000
1743046827.990,9.766,-33.691,-30.273,10.254,0.000
1743046827.994,16.602,-29.785,-31.738,11.230,0.000
1743046827.998,14.160,-30.273,-36.133,17.578,0.000
1743046828.002,8.789,-31.250,-39.062,16.602,0.000
1743046828.006,10.742,-33.691,-33.691,13.672,0.000
1743046828.010,17.578,-26.367,-28.809,19.043,0.000
1743046828.014,19.043,-31.250,-28.320,30.273,0.000
1743046828.018,9.766,-42.969,-31.250,20.508,0.000
1743046828.022,7.324,-42.480,-35.645,15.137,0.000
1743046828.026,21.484,-37.109,-29.297,31.738,0.000
1743046828.030,36.621,-31.250,-27.344,33.203,0.000
1743046828.033,24.902,-29.297,-29.785,20.020,0.000
1743046828.037,14.160,-26.367,-26.367,16.113,0.000
1743046828.041,19.043,-22.461,-17.578,19.043,0.000
1743046828.045,22.461,-23.926,-8.301,26.367,0.000
1743046828.049,23.926,-25.879,-19.531,13.672,0.000
1743046828.053,25.879,-21.484,-22.461,5.371,0.000
1743046828.057,21.484,-28.809,-21.484,14.648,0.000
1743046828.061,10.742,-43.945,-29.297,7.812,0.000
1743046828.065,14.160,-33.203,-18.066,4.883,0.000
1743046828.069,18.066,-28.809,-13.184,13.672,0.000
1743046828.072,1.953,-46.387,-34.180,9.766,0.000
1743046828.076,-2.930,-53.711,-36.133,-6.348,0.000
1743046828.080,-4.395,-46.875,-20.508,-7.324,0.000
1743046828.084,-1.465,-38.086,-20.996,3.906,0.000
1743046828.088,18.066,-37.109,-23.926,15.137,0.000
1743046828.092,19.531,-36.133,-28.809,20.996,0.000
1743046828.096,14.648,-32.227,-23.926,8.789,0.000
1743046828.100,14.160,-31.738,-20.020,-2.441,0.000
1743046828.104,9.277,-28.809,-33.691,-10.254,0.000
1743046828.108,-5.371,-29.297,-39.062,-12.207,0.000
1743046828.112,-5.371,-41.992,-23.438,2.441,0.000
1743046828.115,-0.488,-46.875,-24.414,10.742,0.000
1743046828.119,-3.906,-43.457,-32.715,11.230,0.000
1743046828.123,10.742,-35.645,-15.625,13.184,0.000
1743046828.127,10.742,-36.621,-8.789,13.184,0.000
1743046828.131,-7.324,-41.992,-13.672,15.625,0.000
1743046828.135,0.000,-38.086,-10.742,16.602,0.000
1743046828.139,10.742,-31.250,-21.484,2.930,0.000
1743046828.143,6.348,-27.344,-27.344,0.977,0.000
1743046828.147,-6.836,-22.461,-9.766,5.371,0.000
1743046828.151,-10.254,-33.691,-7.324,1.953,0.000
1743046828.155,9.277,-39.551,-16.602,2.930,0.000
1743046828.158,-4.883,-41.016,-18.066,-12.695,0.000
1743046828.162,-22.949,-43.945,-20.508,-24.902,0.000
1743046828.166,-3.418,-33.203,-20.020,-12.695,0.000
1743046828.170,-6.836,-32.227,-33.691,-9.277,0.000
1743046828.174,-9.766,-43.457,-38.574,-10.742,0.000
1743046828.178,-6.348,-33.203,-17.578,-17.090,0.000
1743046828.182,-11.719,-28.320,-5.859,-22.461,0.000
1743046828.186,-13.672,-35.156,-6.348,-17.578,0.000
1743046828.190,-16.113,-37.109,-8.301,-21.973,0.000
1743046828.194,-3.418,-32.715,-6.836,-15.137,0.000
1743046828.197,-11.230,-37.109,-6.836,-13.672,0.000
1743046828.201,-26.367,-46.875,-11.230,-23.438,0.000
1743046828.205,-26.367,-39.062,-9.766,-19.531,0.000
1743046828.209,-13.184,-34.668,-18.066,-17.090,0.000
1743046828.213,-16.602,-39.062,-30.273,-33.691,0.000
1743046828.217,-18.555,-34.180,-35.645,-29.297,0.000
1743046828.221,-17.578,-35.156,-33.203,-18.555,0.000
1743046828.225,-28.320,-37.109,-23.438,-31.250,0.000
1743046828.229,-34.668,-36.133,-21.973,-46.387,0.000
1743046828.233,-36.621,-36.621,-19.043,-41.016,0.000
1743046828.237,-39.551,-36.133,-17.578,-36.133,0.000
1743046828.240,-39.551,-33.203,-32.227,-38.574,0.000
1743046828.244,-28.320,-28.809,-36.621,-38.086,0.000
1743046828.248,-27.344,-33.203,-21.973,-38.574,0.000
1743046828.252,-25.391,-38.574,-19.043,-34.180,0.000
1743046828.256,-25.391,-30.273,-25.391,-27.344,0.000
1743046828.260,-32.715,-17.578,-25.879,-36.133,0.000
1743046828.264,-16.113,-20.508,-21.973,-35.156,0.000
1743046828.268,-15.137,-27.344,-23.438,-30.273,0.000
1743046828.272,-24.414,-30.273,-25.391,-30.762,0.000
1743046828.276,-23.438,-36.621,-25.391,-32.715,0.000
1743046828.280,-25.391,-42.969,-23.438,-31.738,0.000
1743046828.283,-23.926,-41.992,-25.391,-37.598,0.000
1743046828.287,-16.113,-36.621,-26.367,-35.645,0.000
1743046828.291,-16.113,-35.645,-28.809,-29.297,0.000
1743046828.295,-22.949,-36.621,-25.879,-34.180,0.000
1743046828.299,-21.973,-43.457,-20.508,-25.391,0.000
1743046828.303,-26.855,-43.457,-22.461,-20.996,0.000
1743046828.307,-33.691,-35.156,-21.484,-19.531,0.000
1743046828.311,-24.414,-33.203,-30.762,-21.484,0.000
1743046828.315,-29.785,-36.133,-43.945,-34.668,0.000
1743046828.319,-25.879,-33.203,-31.250,-36.133,0.000
1743046828.322,-34.668,-35.156,-25.879,-42.969,0.000
1743046828.326,-47.852,-48.340,-36.621,-52.246,0.000
1743046828.330,-43.457,-43.945,-37.109,-56.152,0.000
1743046828.334,-57.129,-32.715,-29.785,-55.176,0.000
1743046828.338,-43.945,-32.715,-42.969,-53.223,0.000
1743046828.342,-37.598,-39.062,-40.039,-56.641,0.000
1743046828.346,-38.086,-42.969,-33.691,-58.105,0.000
1743046828.350,-37.598,-34.180,-33.691,-59.082,0.000
1743046828.354,-37.109,-31.250,-33.203,-52.246,0.000
1743046828.358,-13.184,-36.133,-30.273,-39.062,0.000
1743046828.362,-7.324,-35.645,-35.645,-32.715,0.000
1743046828.365,-13.672,-28.809,-37.109,-26.855,0.000
1743046828.369,4.395,-13.184,-29.785,-4.395,0.000
1743046828.373,17.578,-10.742,-15.625,-2.930,0.000
1743046828.377,1.465,-22.949,-8.789,-11.719,0.000
1743046828.381,-8.301,-20.020,-17.578,-21.973,0.000
1743046828.385,-1.465,-21.484,-15.625,-26.367,0.000
1743046828.389,-16.602,-30.762,-17.578,-24.414,0.000
1743046828.393,-14.648,-24.414,-32.715,-21.484,0.000
1743046828.397,-1.465,-19.531,-24.414,-12.695,0.000
1743046828.401,-11.230,-20.020,-22.461,-15.137,0.000
1743046828.405,-12.695,-14.648,-27.832,-20.020,0.000
1743046828.408,0.000,-13.672,-23.438,-21.484,0.000
1743046828.412,0.000,-16.602,-26.367,-25.391,0.000
1743046828.416,0.000,-22.949,-23.926,-27.344,0.000
1743046828.420,0.000,-23.438,-25.391,-29.297,0.000
1743046828.424,0.000,-6.348,-24.902,-29.297,0.000
1743046828.428,0.000,-9.277,-24.414,-40.039,0.000
1743046828.432,0.000,-20.508,-39.551,-65.918,0.000
1743046828.436,0.000,-26.367,-43.457,-70.801,0.000
1743046828.440,0.000,-28.320,-39.551,-87.402,0.000
1743046828.444,0.000,-28.320,-35.645,-109.375,0.000
1743046828.447,0.000,-28.320,-26.855,-120.117,0.000
1743046828.451,0.000,-27.344,-28.320,-138.184,0.000
1743046828.455,-128.906,-20.508,-24.902,-145.020,0.000
1743046828.459,-148.438,-22.949,-16.113,-145.996,0.000
1743046828.463,-168.457,-25.391,-19.531,-165.527,0.000
1743046828.467,-180.664,-20.508,-35.156,-184.570,0.000
1743046828.471,-205.566,-40.527,-41.992,-188.965,0.000
1743046828.475,-195.801,-39.062,-31.250,-190.918,0.000
1743046828.479,-195.312,-25.879,-37.598,-197.266,0.000
1743046828.483,-206.055,-32.227,-41.016,-187.988,0.000
1743046828.487,-207.031,-34.668,-42.480,-186.035,0.000
1743046828.490,-207.031,-40.039,-50.293,-193.848,0.000
1743046828.494,-194.336,-40.039,-46.875,-183.594,0.000
1743046828.498,-176.758,-33.203,-38.574,-173.828,0.000
1743046828.502,0.000,-33.203,-37.109,-173.828,0.000
1743046828.506,0.000,-28.320,-33.691,-164.551,0.000
1743046828.510,0.000,-19.043,-36.133,-145.508,0.000
1743046828.514,0.000,-13.672,-44.922,-148.926,0.000
1743046828.518,0.000,-20.996,-28.809,-147.949,0.000
1743046828.522,0.000,-36.133,-31.738,-145.996,0.000
1743046828.526,0.000,-43.457,-42.480,-139.160,0.000
1743046828.530,0.000,-41.504,-33.691,-115.723,0.000
1743046828.533,0.000,-31.738,-23.438,-97.656,0.000
1743046828.537,0.000,-30.762,-29.785,-94.238,0.000
1743046828.541,0.000,-40.527,-29.297,-92.773,0.000
1743046828.545,0.000,-44.434,-26.367,-83.496,0.000
1743046828.549,-180.664,-40.527,-35.645,-77.148,0.000
1743046828.553,-167.480,-27.832,-25.391,-62.500,0.000
1743046828.557,-151.367,-33.203,-26.367,-43.457,0.000
1743046828.561,-145.508,-38.086,-36.133,-33.691,0.000
1743046828.565,-129.883,-28.320,-28.809,-30.273,0.000
1743046828.569,-139.160,-30.273,-28.320,-30.273,0.000
1743046828.572,-141.602,-33.691,-17.090,-12.695,0.000
1743046828.576,-114.746,-30.273,-11.230,7.324,0.000
1743046828.580,-96.191,-31.738,-23.438,4.883,0.000
1743046828.584,-87.891,-34.180,-29.297,6.348,0.000
1743046828.588,-76.660,-31.250,-33.203,11.719,0.000
1743046828.592,-73.242,-32.227,-33.203,10.254,0.000
1743046828.596,22.949,-36.133,-33.691,9.766,0.000
1743046828.600,19.531,-32.715,-35.156,11.719,0.000
1743046828.604,20.020,-31.738,-38.574,14.648,0.000
1743046828.608,19.043,-32.227,-36.621,13.184,0.000
1743046828.612,17.090,-28.320,-29.297,13.672,0.000
1743046828.615,16.602,-24.902,-35.156,7.812,0.000
1743046828.619,22.949,-29.785,-36.133,4.395,0.000
1743046828.623,33.691,-31.738,-33.691,16.602,0.000
1743046828.627,33.203,-26.855,-41.504,14.160,0.000
1743046828.631,28.809,-29.785,-33.203,10.254,0.000
1743046828.635,36.133,-26.367,-20.508,21.973,0.000
1743046828.639,30.762,-33.203,-28.320,19.043,0.000
1743046828.643,21.973,-39.062,-36.133,9.766,0.000
1743046828.647,33.203,-30.273,-34.180,17.578,0.000
1743046828.651,30.762,-28.809,-27.832,13.672,0.000
1743046828.655,28.809,-26.855,-25.391,6.836,0.000
1743046828.658,20.508,-25.391,-23.926,17.578,0.000
1743046828.662,18.066,-23.926,-17.090,30.762,0.000
1743046828.666,22.949,-32.715,-14.648,26.855,0.000
1743046828.670,21.484,-44.434,-22.461,19.531,0.000
1743046828.674,19.043,-35.645,-23.926,28.320,0.000
1743046828.678,9.277,-33.691,-26.855,22.949,0.000
1743046828.682,8.789,-41.504,-29.785,10.742,0.000
1743046828.686,14.648,-38.086,-27.344,14.160,0.000
1743046828.690,0.000,-34.180,-34.180,20.508,0.000
1743046828.694,0.000,-30.762,-38.086,9.277,0.000
1743046828.697,0.000,-27.832,-40.527,9.277,0.000
1743046828.701,0.000,-31.250,-42.480,13.672,0.000
1743046828.705,0.000,-30.273,-32.227,11.719,0.000
1743046828.709,0.000,-25.391,-25.391,14.160,0.000
1743046828.713,0.000,-32.227,-25.879,9.277,0.000
1743046828.717,0.000,-42.480,-31.250,-0.977,0.000
1743046828.721,0.000,-40.527,-37.598,5.859,0.000
1743046828.725,0.000,-30.762,-33.203,8.301,0.000
1743046828.729,0.000,-28.320,-29.297,-7.812,0.000
1743046828.733,0.000,-33.203,-28.320,-17.090,0.000
1743046828.737,6.836,-35.645,-25.879,-12.695,0.000
1743046828.740,0.000,-33.203,-25.391,-9.277,0.000
1743046828.744,-3.906,-32.715,-26.367,-13.184,0.000
1743046828.748,-10.254,-32.227,-30.273,-15.137,0.000
1743046828.752,-18.066,-40.527,-34.180,-16.602,0.000
1743046828.756,-9.277,-35.156,-32.715,-13.184,0.000
1743046828.760,-10.742,-31.250,-28.320,-4.395,0.000
1743046828.764,-8.789,-43.945,-30.762,-3.906,0.000
1743046828.768,-4.395,-39.551,-28.809,-5.859,0.000
1743046828.772,-5.371,-33.203,-28.809,-3.418,0.000
1743046828.776,2.930,-31.738,-30.762,-9.277,0.000
1743046828.780,-1.953,-41.992,-37.598,-20.020,0.000
1743046828.783,0.000,-44.434,-40.039,-19.043,0.000
1743046828.787,0.000,-33.691,-37.598,-15.137,0.000
1743046828.791,0.000,-31.250,-41.016,-8.301,0.000
1743046828.795,0.000,-28.320,-45.898,-13.184,0.000
1743046828.799,0.000,-31.738,-47.363,-21.484,0.000
1743046828.803,0.000,-30.273,-43.945,-20.508,0.000
1743046828.807,0.000,-28.809,-50.781,-20.508,0.000
1743046828.811,0.000,-42.480,-56.152,-12.695,0.000
1743046828.815,0.000,-57.617,-50.781,-14.160,0.000
1743046828.819,0.000,-55.664,-42.480,-21.973,0.000
1743046828.822,0.000,-50.293,-36.133,-8.789,0.000
1743046828.826,0.000,-48.340,-37.598,-3.906,0.000
1743046828.830,-21.484,-48.340,-40.039,-1.953,0.000
1743046828.834,-15.625,-48.340,-36.133,0.977,0.000
1743046828.838,-8.789,-40.527,-30.273,-5.371,0.000
1743046828.842,-3.906,-31.738,-25.879,-6.836,0.000
1743046828.846,-20.996,-37.109,-28.809,-8.789,0.000
1743046828.850,-25.879,-45.898,-38.086,-9.766,0.000
1743046828.854,-18.066,-37.598,-30.273,-9.277,0.000
1743046828.858,-40.527,-36.133,-24.414,-20.996,0.000
1743046828.862,-47.852,-40.039,-26.367,-25.879,0.000
1743046828.865,-36.133,-36.621,-28.320,-24.414,0.000
1743046828.869,-44.434,-40.039,-41.504,-39.551,0.000
1743046828.873,-52.246,-39.551,-41.504,-42.969,0.000
1743046828.877,-41.016,-39.062,-27.832,-32.227,0.000
1743046828.881,-39.551,-42.480,-30.762,-38.574,0.000
1743046828.885,-33.691,-42.480,-37.109,-41.016,0.000
1743046828.889,-22.461,-42.480,-32.227,-33.203,0.000
1743046828.893,-23.438,-46.875,-41.504,-34.668,0.000
1743046828.897,-21.484,-41.504,-42.480,-32.715,0.000
1743046828.901,-5.371,-35.645,-30.273,-33.203,0.000
1743046828.905,7.812,-36.133,-29.785,-29.297,0.000
1743046828.908,-4.883,-35.645,-37.598,-27.344,0.000
1743046828.912,-2.441,-33.691,-44.434,-17.578,0.000
1743046828.916,9.766,-37.598,-37.109,-2.930,0.000
1743046828.920,-9.277,-44.922,-27.344,-16.602,0.000
1743046828.924,-13.672,-46.875,-23.926,-17.090,0.000
1743046828.928,-2.930,-48.340,-18.066,-7.324,0.000
1743046828.932,-1.953,-49.805,-11.230,-4.883,0.000
1743046828.936,-9.766,-53.711,-13.672,-5.859,0.000
1743046828.940,-20.020,-55.176,-17.578,-10.742,0.000
1743046828.944,-27.344,-47.363,-21.973,-12.207,0.000
1743046828.947,-18.555,-50.293,-27.832,-9.766,0.000
1743046828.951,-8.301,-57.129,-17.090,-10.254,0.000
1743046828.955,-16.602,-54.688,-11.230,-16.113,0.000
1743046828.959,-26.367,-51.758,-19.531,-20.020,0.000
1743046828.963,-22.461,-41.992,-23.438,-21.973,0.000
1743046828.967,-28.320,-37.598,-22.461,-17.578,0.000
1743046828.971,-28.320,-40.039,-25.879,-20.508,0.000
1743046828.975,-30.273,-29.297,-32.227,-24.902,0.000
1743046828.979,-31.250,-21.484,-25.879,-20.508,0.000
1743046828.983,-25.391,-27.344,-18.555,-23.926,0.000
1743046828.987,-30.762,-27.832,-10.742,-30.762,0.000
1743046828.990,-34.180,-25.879,-4.883,-28.809,0.000
1743046828.994,-35.645,-31.250,-18.066,-32.715,0.000
1743046828.998,-41.504,-38.086,-35.645,-38.574,0.000
1743046829.002,-40.527,-35.156,-40.039,-41.504,0.000
1743046829.006,-22.461,-31.738,-30.273,-36.133,0.000
1743046829.010,-25.879,-31.738,-32.227,-31.738,0.000
1743046829.014,-43.945,-32.715,-41.504,-40.527,0.000
1743046829.018,0.000,-31.738,-36.621,-29.785,0.000
1743046829.022,0.000,-25.879,-38.086,-22.949,0.000
1743046829.026,0.000,-28.320,-41.992,-37.109,0.000
1743046829.030,0.000,-34.668,-41.016,-48.340,0.000
1743046829.033,0.000,-33.691,-34.668,-49.316,0.000
1743046829.037,0.000,-34.668,-30.273,-37.109,0.000
1743046829.041,0.000,-35.645,-36.133,-38.086,0.000
1743046829.045,0.000,-37.109,-37.109,-42.969,0.000
1743046829.049,0.000,-38.574,-34.668,-23.438,0.000
1743046829.053,0.000,-35.645,-26.855,-16.602,0.000
1743046829.057,0.000,-35.156,-18.066,-27.832,0.000
1743046829.061,0.000,-32.227,-25.879,-31.738,0.000
1743046829.065,-48.828,-37.598,-37.109,-41.992,0.000
1743046829.069,-43.457,-40.039,-38.574,-37.109,0.000
1743046829.072,-35.156,-40.527,-37.109,-36.133,0.000
1743046829.076,-39.062,-38.574,-29.785,-54.688,0.000
1743046829.080,-44.434,-30.273,-38.574,-55.176,0.000
1743046829.084,-26.367,-26.367,-66.895,-49.805,0.000
1743046829.088,-3.906,-18.066,-60.547,-41.992,0.000
1743046829.092,-45.410,-20.020,-36.621,-58.594,0.000
1743046829.096,-69.336,-32.715,-27.832,-65.918,0.000
1743046829.100,-49.805,-22.949,-30.273,-54.688,0.000
1743046829.104,-36.133,-11.230,-26.855,-43.945,0.000
1743046829.108,-13.184,-10.254,-22.949,-40.039,0.000
1743046829.112,0.000,-15.625,-32.227,-41.016,0.000
1743046829.115,0.000,-20.508,-29.297,-30.273,0.000
1743046829.119,0.000,-20.508,-19.531,-41.992,0.000
1743046829.123,0.000,-27.344,-15.137,-44.434,0.000
1743046829.127,0.000,-30.273,-11.230,-35.645,0.000
1743046829.131,0.000,-14.648,-14.160,-33.203,0.000
1743046829.135,0.000,-16.113,-23.926,-38.086,0.000
1743046829.139,0.000,-31.250,-24.902,-29.785,0.000
1743046829.143,0.000,-28.809,-21.484,-31.250,0.000
1743046829.147,0.000,-21.484,-23.438,-39.062,0.000
1743046829.151,0.000,-24.902,-22.949,-41.016,0.000
1743046829.155,0.000,-33.203,-31.738,-47.852,0.000
1743046829.158,-31.738,-30.762,-41.016,-36.133,0.000
1743046829.162,-38.086,-30.762,-38.086,-36.133,0.000
1743046829.166,-43.945,-32.715,-29.297,-47.852,0.000
1743046829.170,-24.414,-29.785,-21.484,-44.434,0.000
1743046829.174,-33.691,-20.508,-9.766,-41.992,0.000
1743046829.178,-40.527,-18.066,-7.812,-52.246,0.000
1743046829.182,-42.969,-30.762,-16.602,-53.711,0.000
1743046829.186,-44.922,-43.457,-22.461,-38.574,0.000
1743046829.190,-54.688,-47.363,-23.438,-42.480,0.000
1743046829.194,-46.387,-41.016,-19.531,-31.738,0.000
1743046829.197,-43.457,-40.527,-28.320,-19.531,0.000
1743046829.201,-45.410,-43.945,-35.645,-39.551,0.000
1743046829.205,0.000,-45.898,-26.367,-29.297,0.000
1743046829.209,0.000,-45.898,-25.879,-22.461,0.000
1743046829.213,0.000,-35.156,-32.715,-28.809,0.000
1743046829.217,0.000,-36.133,-34.668,-24.414,0.000
1743046829.221,0.000,-34.180,-35.156,-4.883,0.000
1743046829.225,0.000,-22.949,-39.062,5.859,0.000
1743046829.229,0.000,-20.020,-41.504,-7.324,0.000
1743046829.233,0.000,-20.508,-35.156,-6.836,0.000
1743046829.237,0.000,-20.508,-33.691,10.742,0.000
1743046829.240,0.000,-25.391,-37.109,17.090,0.000
1743046829.244,0.000,-30.762,-35.156,15.137,0.000
1743046829.248,0.000,-29.785,-30.273,12.207,0.000
1743046829.252,-48.340,-22.949,-27.832,5.859,0.000
1743046829.256,-33.203,-22.949,-32.715,2.441,0.000
1743046829.260,-25.879,-21.484,-42.969,-4.883,0.000
1743046829.264,-20.996,-26.367,-43.457,-8.301,0.000
1743046829.268,16.602,-35.645,-49.316,-7.324,0.000
1743046829.272,-7.324,-25.391,-51.758,-9.277,0.000
1743046829.276,3.418,-16.602,-43.945,-10.742,0.000
1743046829.280,35.645,-30.273,-39.551,-13.672,0.000
1743046829.283,24.414,-38.086,-41.016,-8.301,0.000
1743046829.287,13.184,-31.738,-49.805,-9.277,0.000
1743046829.291,16.113,-27.344,-47.363,-4.395,0.000
1743046829.295,28.809,-33.691,-36.133,2.930,0.000
1743046829.299,-26.855,-39.551,-27.344,-3.906,0.000
1743046829.303,-11.719,-39.551,-16.113,5.371,0.000
1743046829.307,-15.625,-47.363,-12.207,14.648,0.000
1743046829.311,-18.555,-53.711,-11.719,24.902,0.000
1743046829.315,-28.320,-58.594,-6.348,10.254,0.000
1743046829.319,-41.504,-57.617,-5.371,-10.254,0.000
1743046829.322,-26.855,-56.152,-1.953,0.000,0.000
1743046829.326,-21.973,-60.059,0.977,8.789,0.000
1743046829.330,-26.367,-63.477,-0.977,4.395,0.000
1743046829.334,-11.719,-61.523,-4.395,-4.883,0.000
1743046829.338,-8.789,-56.152,-13.184,-13.184,0.000
1743046829.342,-26.855,-57.617,-15.625,-9.766,0.000
1743046829.346,-30.273,-55.664,-13.184,-2.930,0.000
1743046829.350,-20.020,-52.734,-15.137,-5.371,0.000
1743046829.354,-15.137,-54.199,-20.996,-3.906,0.000
1743046829.358,-17.090,-46.387,-22.461,5.859,0.000
1743046829.362,-32.227,-44.922,-24.414,-0.488,0.000
1743046829.365,-46.387,-42.969,-24.414,-28.809,0.000
1743046829.369,-40.527,-39.062,-17.090,-36.133,0.000
1743046829.373,-17.090,-39.062,-16.602,-29.297,0.000
1743046829.377,-30.762,-46.387,-26.367,-20.508,0.000
1743046829.381,-32.715,-46.387,-29.297,-7.812,0.000
1743046829.385,-2.930,-35.645,-25.879,4.883,0.000
1743046829.389,-22.461,-37.598,-34.668,3.906,0.000
1743046829.393,-26.367,-38.086,-29.785,-3.906,0.000
1743046829.397,-5.859,-35.156,-21.484,1.953,0.000
1743046829.401,-11.719,-40.039,-15.625,13.184,0.000
1743046829.405,-29.297,-39.062,-9.766,7.324,0.000
1743046829.408,-28.809,-37.109,-13.672,15.625,0.000
1743046829.412,-8.301,-32.227,-22.949,33.203,0.000
1743046829.416,0.488,-34.180,-26.855,43.945,0.000
1743046829.420,-22.461,-39.062,-13.672,44.434,0.000
1743046829.424,-32.715,-36.133,-12.207,30.273,0.000
1743046829.428,-24.902,-35.645,-17.578,23.438,0.000
1743046829.432,-38.086,-31.738,-17.090,11.719,0.000
1743046829.436,-34.180,-33.203,-25.391,1.465,0.000
1743046829.440,-25.391,-35.156,-30.762,8.301,0.000
1743046829.444,-16.113,-36.621,-27.832,4.883,0.000
1743046829.447,-30.273,-33.691,-27.832,-12.695,0.000
1743046829.451,-29.785,-30.762,-32.227,-34.668,0.000
1743046829.455,0.000,-30.273,-30.762,-44.922,0.000
1743046829.459,29.297,-20.996,-21.484,-40.527,0.000
1743046829.463,-22.461,-18.555,-30.273,-39.551,0.000
1743046829.467,-111.816,-35.645,-41.016,-46.875,0.000
1743046829.471,-105.469,-39.551,-37.598,-45.898,0.000
1743046829.475,-46.387,-29.785,-39.551,-29.297,0.000
1743046829.479,-47.363,-25.879,-40.039,-54.199,0.000
1743046829.483,-74.219,-27.832,-44.922,-88.379,0.000
1743046829.487,-104.492,-32.715,-33.691,-65.918,0.000
1743046829.490,-105.469,-18.555,-19.531,-53.711,0.000
1743046829.494,-75.195,-18.555,-40.039,-64.453,0.000
1743046829.498,-72.754,-32.227,-51.270,-50.293,0.000
1743046829.502,-32.227,-28.809,-50.781,-13.184,0.000
1743046829.506,-21.484,-16.602,-56.152,-56.152,0.000
1743046829.510,-32.715,-15.625,-44.922,-89.844,0.000
1743046829.514,2.441,-30.273,-37.109,-46.387,0.000
1743046829.518,-20.020,-27.344,-54.688,17.578,0.000
1743046829.522,-41.992,-23.926,-45.410,-15.625,0.000
1743046829.526,-36.621,-36.133,-29.297,-18.066,0.000
1743046829.530,-58.594,-35.156,-32.227,42.480,0.000
1743046829.533,-92.773,-31.250,0.000,12.207,0.000
1743046829.537,-152.344,-37.109,0.000,-68.359,0.000
1743046829.541,-118.164,-46.875,0.000,-97.656,0.000
1743046829.545,-97.656,-38.086,0.000,-94.238,0.000
1743046829.549,-83.496,-21.973,0.000,-72.754,0.000
1743046829.553,-28.320,-13.184,0.000,-59.570,0.000
1743046829.557,-83.984,-23.926,0.000,-73.242,0.000
1743046829.561,-97.168,-41.504,0.000,-56.641,0.000
1743046829.565,-93.750,-41.504,0.000,-34.668,0.000
1743046829.569,-80.566,-36.133,0.000,-31.250,0.000
1743046829.572,-47.363,-33.691,0.000,-19.531,0.000
1743046829.576,-70.801,-36.621,0.000,-16.113,0.000
1743046829.580,-42.969,-40.039,-38.574,-23.438,0.000
1743046829.584,4.395,-36.133,-48.340,-0.977,0.000
1743046829.588,-67.383,-30.762,-53.223,-15.625,0.000
1743046829.592,-61.035,-28.320,-58.594,-27.832,0.000
1743046829.596,9.766,-36.133,-59.570,-15.137,0.000
1743046829.600,-67.383,-32.227,-65.918,-50.293,0.000
1743046829.604,-103.516,-21.973,-71.777,-63.965,0.000
1743046829.608,-76.660,-27.344,-67.383,-52.246,0.000
1743046829.612,-83.496,-35.645,-72.754,-73.730,0.000
1743046829.615,-82.520,-33.691,-78.125,-85.938,0.000
1743046829.619,-48.340,-32.715,-61.035,-54.688,0.000
1743046829.623,-52.734,-31.250,-54.199,-38.086,0.000
1743046829.627,-60.547,-30.762,-56.152,-30.762,0.000
1743046829.631,-59.082,-28.320,-55.176,-31.738,0.000
1743046829.635,-75.684,-32.227,-47.363,-41.016,0.000
1743046829.639,-75.684,-34.668,-42.480,-36.133,0.000
1743046829.643,-64.941,-29.297,-46.875,-36.621,0.000
1743046829.647,-52.734,-23.926,-39.551,-25.879,0.000
1743046829.651,-35.156,-31.250,-36.621,-13.184,0.000
1743046829.655,-61.035,-43.457,-38.574,-25.391,0.000
1743046829.658,-78.613,-30.273,-30.273,-25.879,0.000
1743046829.662,-65.918,-30.762,-40.527,-17.578,0.000
1743046829.666,-57.129,-38.086,-48.828,-16.113,0.000
1743046829.670,-51.270,-40.527,-35.156,-27.344,0.000
1743046829.674,-42.480,-45.410,-34.180,-44.434,0.000
1743046829.678,-54.199,-44.434,-40.527,-39.551,0.000
1743046829.682,-58.105,-38.086,-41.016,-26.367,0.000
1743046829.686,-41.992,-41.016,-41.992,-32.715,0.000
1743046829.690,-49.316,-36.133,-43.945,-31.250,0.000
1743046829.694,-48.828,-28.809,-48.340,-28.320,0.000
1743046829.698,-44.922,-23.926,-64.941,-34.668,0.000
1743046829.701,-52.734,-25.391,-65.918,-44.434,0.000
1743046829.705,-56.152,-25.391,-63.965,-49.805,0.000
1743046829.709,-44.434,-19.531,-67.383,-46.387,0.000
1743046829.713,-34.180,-17.578,-61.523,-51.270,0.000
1743046829.717,-46.387,-14.160,-57.129,-66.406,0.000
1743046829.721,-52.246,-21.973,-61.523,-68.848,0.000
1743046829.725,-38.574,-19.043,-62.988,-63.965,0.000
1743046829.729,-25.391,-7.812,-57.617,-51.758,0.000
1743046829.733,-2.930,-6.836,-50.293,-40.039,0.000
1743046829.737,-24.414,-14.648,-41.016,-41.504,0.000
1743046829.740,-39.551,-19.043,-38.574,-49.805,0.000
1743046829.744,-33.203,-21.973,-36.133,-57.129,0.000
1743046829.748,-45.410,-25.391,-35.645,-54.199,0.000
1743046829.752,-52.734,-24.414,-44.434,-53.711,0.000
1743046829.756,-54.688,-30.273,-50.781,-54.688,0.000
1743046829.760,-56.152,-34.668,-48.828,-50.293,0.000
1743046829.764,-53.223,-38.574,-40.527,-54.199,0.000
1743046829.768,-39.062,-33.203,-35.156,-53.711,0.000
1743046829.772,-67.871,-18.555,-30.273,-70.312,0.000
1743046829.776,-96.680,-23.926,-36.621,-88.379,0.000
1743046829.780,-89.844,-39.551,-38.574,-73.242,0.000
1743046829.783,-86.426,-28.809,-23.926,-71.289,0.000
1743046829.787,-91.309,-28.809,-21.484,-79.102,0.000
1743046829.791,-100.098,-39.551,-24.902,-94.238,0.000
1743046829.795,-99.121,-31.250,-32.715,-103.027,0.000
1743046829.799,-98.633,-34.668,-42.480,-113.770,0.000
1743046829.803,-122.070,-32.715,-41.504,-132.812,0.000
1743046829.807,-144.043,-23.438,-32.227,-142.090,0.000
1743046829.811,-154.785,-28.809,-29.297,-149.902,0.000
1743046829.815,-160.645,-28.809,-31.738,-158.203,0.000
1743046829.819,-175.293,-24.414,-39.062,-172.852,0.000
1743046829.823,-172.363,-22.949,-35.645,-172.852,0.000
1743046829.826,-181.152,-19.043,-40.527,-171.387,0.000
1743046829.830,-183.105,-15.625,-50.293,-167.969,0.000
1743046829.834,-175.293,-15.137,-58.105,-163.086,0.000
1743046829.838,-174.805,-20.996,-54.688,-159.668,0.000
1743046829.842,-177.246,-34.668,-35.156,-162.598,0.000
1743046829.846,-188.965,-42.969,-30.762,-174.805,0.000
1743046829.850,-187.988,-42.969,-39.551,-167.969,0.000
1743046829.854,-169.922,-51.270,-43.457,-142.578,0.000
1743046829.858,-151.367,-49.316,-23.438,-124.512,0.000
1743046829.862,-152.832,-45.898,-11.230,-132.812,0.000
1743046829.865,-157.715,-42.969,-14.160,-130.859,0.000
1743046829.869,-148.438,-41.992,-19.043,-119.629,0.000
1743046829.873,-140.137,-45.898,-30.273,-108.398,0.000
1743046829.877,-109.375,-30.762,-20.020,-81.055,0.000
1743046829.881,-94.238,-18.066,-16.113,-73.730,0.000
1743046829.885,-95.215,-33.691,-30.762,-61.035,0.000
1743046829.889,-78.613,-52.246,-25.391,-51.270,0.000
1743046829.893,-57.617,-42.480,-4.395,-50.781,0.000
1743046829.897,-43.457,-36.621,-1.465,-36.133,0.000
1743046829.901,-52.734,-53.711,-18.066,-29.785,0.000
1743046829.905,-31.738,-44.922,-15.137,-8.301,0.000
1743046829.908,0.000,-37.598,-23.438,-3.906,0.000
1743046829.912,0.000,-45.898,-34.180,-13.672,0.000
1743046829.916,0.000,-41.016,-21.484,0.000,0.000
1743046829.920,0.000,-37.598,-17.578,13.184,0.000
1743046829.924,0.000,-41.504,-20.996,20.020,0.000
1743046829.928,0.000,-35.645,-20.508,10.742,0.000
1743046829.932,0.000,-23.926,-9.766,25.879,0.000
1743046829.936,0.000,-26.367,-9.277,32.715,0.000
1743046829.940,0.000,-39.551,-18.066,30.273,0.000
1743046829.944,0.000,-39.551,-24.902,30.762,0.000
1743046829.948,0.000,-42.480,-23.926,25.391,0.000
1743046829.951,0.000,-42.969,-16.113,28.809,0.000
1743046829.955,18.066,-36.621,-22.949,35.156,0.000
1743046829.959,17.578,-37.598,-33.691,38.086,0.000
1743046829.963,28.320,-41.504,-34.180,28.320,0.000
1743046829.967,36.621,-40.527,-29.785,33.203,0.000
1743046829.971,39.551,-36.621,-28.809,28.320,0.000
1743046829.975,33.691,-29.785,-28.320,29.785,0.000
1743046829.979,35.645,-29.785,-23.438,46.387,0.000
1743046829.983,33.203,-38.574,-25.391,45.898,0.000
1743046829.987,24.414,-40.527,-31.250,33.691,0.000
1743046829.990,24.902,-41.504,-28.809,25.879,0.000
1743046829.994,35.156,-37.109,-29.297,27.344,0.000
1743046829.998,46.387,-34.668,-28.809,34.180,0.000
1743046830.002,35.156,-34.180,-24.414,34.668,0.000
1743046830.006,31.250,-35.156,-20.996,39.062,0.000
1743046830.010,33.691,-34.180,-20.996,33.691,0.000
1743046830.014,41.016,-27.344,-26.367,36.133,0.000
1743046830.018,36.133,-33.691,-29.785,38.574,0.000
1743046830.022,32.227,-31.250,-22.949,26.367,0.000
1743046830.026,36.133,-24.414,-12.207,29.297,0.000
1743046830.030,22.461,-25.879,-22.461,33.691,0.000
1743046830.033,24.414,-28.320,-36.133,30.762,0.000
1743046830.037,24.414,-35.156,-38.086,20.996,0.000
1743046830.041,25.391,-35.156,-39.062,16.113,0.000
1743046830.045,23.438,-31.738,-37.109,15.137,0.000
1743046830.049,10.254,-26.855,-28.320,9.277,0.000
1743046830.053,9.766,-18.555,-27.344,-1.953,0.000
1743046830.057,28.320,-16.113,-27.832,1.953,0.000
1743046830.061,46.387,-16.602,-23.926,12.695,0.000
1743046830.065,40.527,-22.461,-22.949,8.789,0.000
1743046830.069,31.250,-29.297,-26.367,6.836,0.000
1743046830.073,22.461,-25.391,-21.973,9.277,0.000
1743046830.076,27.344,-26.367,-19.531,11.719,0.000
1743046830.080,23.926,-30.273,-16.602,27.344,0.000
1743046830.084,19.043,-28.320,-11.230,17.090,0.000
1743046830.088,29.297,-28.320,-16.113,0.977,0.000
1743046830.092,4.883,-29.785,-14.160,-1.953,0.000
1743046830.096,11.719,-27.344,-12.695,-3.418,0.000
1743046830.100,11.719,-36.133,-23.926,-5.859,0.000
1743046830.104,2.930,-32.227,-26.855,-3.906,0.000
1743046830.108,9.277,-28.809,-17.090,12.207,0.000
1743046830.112,-8.789,-36.133,-18.066,0.488,0.000
1743046830.115,-16.113,-36.133,-25.391,-12.695,0.000
1743046830.119,-9.766,-42.480,-28.320,-11.719,0.000
1743046830.123,-7.324,-43.945,-27.832,-17.578,0.000
1743046830.127,-5.371,-36.133,-23.926,-20.020,0.000
1743046830.131,-1.953,-22.949,-19.043,-20.020,0.000
1743046830.135,1.953,-28.809,-17.090,-17.578,0.000
1743046830.139,-1.465,-39.062,-17.578,-11.719,0.000
1743046830.143,-16.602,-36.621,-20.020,-7.324,0.000
1743046830.147,-3.906,-34.180,-21.973,-14.160,0.000
1743046830.151,10.742,-37.598,-27.344,-24.414,0.000
1743046830.155,-17.090,-35.156,-27.344,-33.691,0.000
1743046830.158,-21.484,-26.855,-20.020,-25.391,0.000
1743046830.162,-20.508,-27.832,-23.926,-9.277,0.000
1743046830.166,-29.785,-38.574,-38.574,-18.555,0.000
1743046830.170,-33.203,-40.527,-44.922,-26.855,0.000
1743046830.174,-15.137,-33.203,-41.992,-23.926,0.000
1743046830.178,-2.930,-32.715,-44.922,-20.508,0.000
1743046830.182,-18.066,-40.527,-50.293,-39.551,0.000
1743046830.186,-34.180,-41.504,-54.688,-51.270,0.000
1743046830.190,-38.086,-43.945,-61.523,-42.480,0.000
1743046830.194,-12.207,-32.715,-42.480,-24.902,0.000
1743046830.198,-7.324,-26.855,-28.320,-20.508,0.000
1743046830.201,-14.648,-31.250,-54.199,-38.574,0.000
1743046830.205,-12.207,-30.273,-54.688,-37.109,0.000
1743046830.209,-7.812,-26.855,-30.273,-10.254,0.000
1743046830.213,11.230,-30.762,-25.391,-5.371,0.000
1743046830.217,-22.461,-40.039,-26.855,-7.812,0.000
1743046830.221,-24.902,-41.504,-17.578,5.859,0.000
1743046830.225,1.953,-40.039,-14.160,-1.953,0.000
1743046830.229,-50.781,-43.945,-27.832,-9.766,0.000
1743046830.233,-70.312,-56.641,-31.250,-22.461,0.000
1743046830.237,-30.762,-47.852,-19.043,-26.367,0.000
1743046830.240,-41.016,-36.133,-12.207,-18.066,0.000
1743046830.244,-49.805,-36.621,-16.602,-27.344,0.000
1743046830.248,-15.625,-37.109,-28.320,-29.297,0.000
1743046830.252,-45.898,-41.016,-28.320,-26.855,0.000
1743046830.256,-70.801,-28.809,-16.602,-33.203,0.000
1743046830.260,-55.664,-26.367,-20.996,-41.016,0.000
1743046830.264,-54.199,-42.480,-22.949,-38.086,0.000
1743046830.268,-43.945,-45.410,-15.625,-27.832,0.000
1743046830.272,-45.410,-44.922,-14.648,-29.785,0.000
1743046830.276,-41.992,-41.016,-19.043,-28.320,0.000
1743046830.280,-38.574,-41.992,-25.879,-23.926,0.000
1743046830.283,0.000,-36.621,-23.438,-27.832,0.000
1743046830.287,0.000,-38.574,-23.438,-23.926,0.000
1743046830.291,0.000,-47.363,-36.133,-22.461,0.000
1743046830.295,0.000,-47.852,-47.363,-27.344,0.000
1743046830.299,0.000,-47.363,-41.016,-31.738,0.000
1743046830.303,0.000,-42.480,-26.367,-21.973,0.000
1743046830.307,0.000,-46.387,-25.879,-25.391,0.000
1743046830.311,0.000,-61.035,-37.598,-37.598,0.000
1743046830.315,0.000,-55.664,-35.645,-24.414,0.000
1743046830.319,0.000,-45.898,-21.973,-21.484,0.000
1743046830.323,0.000,-52.246,-24.414,-38.574,0.000
1743046830.326,0.000,-54.199,-27.344,-40.527,0.000
1743046830.330,-34.668,-46.875,-28.320,-27.344,0.000
1743046830.334,-22.949,-41.016,-35.645,-26.855,0.000
1743046830.338,-7.812,-30.273,-29.785,-30.273,0.000
1743046830.342,-28.320,-27.832,-25.391,-25.879,0.000
1743046830.346,-38.086,-44.922,-23.438,-36.621,0.000
1743046830.350,-30.273,-49.316,-15.625,-41.992,0.000
1743046830.354,-44.922,-43.945,-29.297,-36.133,0.000
1743046830.358,-46.387,-50.293,-44.922,-40.039,0.000
1743046830.362,-28.320,-51.758,-33.691,-24.414,0.000
1743046830.365,-33.691,-48.828,-28.809,-18.555,0.000
1743046830.369,-33.203,-46.387,-35.645,-25.391,0.000
1743046830.373,-28.809,-44.434,-39.551,-23.926,0.000
1743046830.377,-32.227,-41.504,-41.992,-26.367,0.000
1743046830.381,-33.691,-35.645,-44.922,-27.344,0.000
1743046830.385,-38.086,-38.574,-40.527,-24.902,0.000
1743046830.389,-38.086,-43.945,-31.250,-19.043,0.000
1743046830.393,-48.340,-38.086,-24.902,-20.020,0.000
1743046830.397,-48.828,-31.250,-25.879,-29.785,0.000
1743046830.401,-39.551,-29.297,-37.598,-37.109,0.000
1743046830.405,-28.320,-24.414,-40.039,-42.969,0.000
1743046830.408,-24.414,-34.668,-31.250,-34.668,0.000
1743046830.412,-35.645,-41.992,-23.926,-31.738,0.000
1743046830.416,-39.551,-35.156,-29.785,-36.621,0.000
1743046830.420,-38.086,-33.203,-37.109,-29.785,0.000
1743046830.424,-36.133,-33.691,-33.203,-28.809,0.000
1743046830.428,-25.879,-31.738,-30.762,-32.227,0.000
1743046830.432,-17.578,-26.367,-31.250,-25.879,0.000
1743046830.436,-25.879,-23.438,-28.809,-25.391,0.000
1743046830.440,-28.809,-23.438,-17.090,-26.855,0.000
1743046830.444,-18.555,-16.113,-2.441,-16.113,0.000
1743046830.448,-7.324,-13.672,-1.465,-15.137,0.000
1743046830.451,-1.953,-38.086,-20.996,-20.996,0.000
1743046830.455,-0.488,-49.805,-23.926,-20.996,0.000
1743046830.459,-1.953,-32.227,-23.438,-13.184,0.000
1743046830.463,-11.719,-20.508,-26.855,-15.625,0.000
1743046830.467,-26.367,-9.766,-15.625,-29.297,0.000
1743046830.471,-37.598,-4.395,-12.695,-44.434,0.000
1743046830.475,-38.086,-10.254,-17.578,-39.062,0.000
1743046830.479,-59.082,-13.672,-24.902,-55.664,0.000
1743046830.483,-78.613,-20.996,-24.414,-70.801,0.000
1743046830.487,-78.613,-24.902,-25.879,-68.848,0.000
1743046830.490,-88.867,-17.090,-30.273,-76.660,0.000
1743046830.494,-86.914,-6.836,-27.832,-73.730,0.000
1743046830.498,-78.125,-10.742,-28.320,-82.031,0.000
1743046830.502,-81.543,-20.996,-41.016,-90.820,0.000
1743046830.506,-76.660,-10.254,-38.574,-79.590,0.000
1743046830.510,-74.219,-0.977,-35.645,-86.426,0.000
1743046830.514,-76.172,-8.301,-50.781,-88.379,0.000
1743046830.518,-65.430,-15.137,-58.105,-75.195,0.000
1743046830.522,-57.129,-9.766,-51.270,-68.848,0.000
1743046830.526,-51.270,-8.789,-43.945,-66.406,0.000
1743046830.530,-42.969,-12.695,-40.039,-59.082,0.000
1743046830.533,-38.086,-9.277,-42.969,-48.828,0.000
1743046830.537,-38.086,-5.859,-50.781,-46.387,0.000
1743046830.541,-28.809,-8.789,-43.457,-47.852,0.000
1743046830.545,-23.926,-19.043,-35.156,-45.898,0.000
1743046830.549,-25.879,-28.320,-30.762,-41.504,0.000
1743046830.553,-22.949,-28.320,-34.180,-44.434,0.000
1743046830.557,-15.625,-25.391,-49.316,-45.410,0.000
1743046830.561,-19.531,-25.391,-44.434,-37.598,0.000
1743046830.565,-19.043,-23.438,-26.855,-29.297,0.000
1743046830.569,-0.977,-6.836,-23.926,-25.879,0.000
1743046830.573,-10.254,-6.836,-34.668,-28.320,0.000
1743046830.576,-24.414,-27.344,-39.551,-30.762,0.000
1743046830.580,-23.438,-34.668,-37.598,-26.367,0.000
1743046830.584,-23.438,-22.461,-32.715,-22.949,0.000
1743046830.588,-21.973,-15.137,-25.391,-21.973,0.000
1743046830.592,-20.508,-17.090,-27.832,-24.414,0.000
1743046830.596,-13.672,-15.137,-37.598,-32.715,0.000
1743046830.600,-16.113,-18.555,-40.039,-33.691,0.000
1743046830.604,-27.344,-18.066,-44.434,-31.738,0.000
1743046830.608,-20.020,-16.113,-44.922,-33.691,0.000
1743046830.612,-25.391,-19.043,-35.645,-29.297,0.000
1743046830.615,-33.203,-20.508,-28.320,-22.461,0.000
1743046830.619,-17.578,-24.902,-30.762,-27.832,0.000
1743046830.623,-27.832,-21.484,-44.922,-33.203,0.000
1743046830.627,-32.227,-14.160,-45.898,-24.902,0.000
1743046830.631,-29.297,-19.043,-37.598,-22.949,0.000
1743046830.635,-29.785,-22.949,-34.668,-23.438,0.000
1743046830.639,-14.160,-27.832,-33.203,-25.391,0.000
1743046830.643,-6.348,-24.414,-28.809,-27.344,0.000
1743046830.647,-13.672,-16.113,-36.621,-32.715,0.000
1743046830.651,-20.020,-18.066,-46.875,-42.969,0.000
1743046830.655,-29.297,-19.531,-38.574,-40.527,0.000
1743046830.658,-24.414,-18.555,-38.574,-40.039,0.000
1743046830.662,-5.859,-15.625,-38.574,-33.691,0.000
1743046830.666,-12.207,-12.695,-29.297,-22.949,0.000
1743046830.670,-28.809,-10.742,-27.344,-20.508,0.000
1743046830.674,-25.879,-14.160,-22.949,-30.273,0.000
1743046830.678,-18.555,-17.090,-16.602,-44.922,0.000
1743046830.682,-32.715,-20.996,-25.391,-41.992,0.000
1743046830.686,-38.574,-27.344,-36.133,-35.156,0.000
1743046830.690,-23.438,-23.438,-33.691,-34.180,0.000
1743046830.694,-31.250,-23.926,-35.156,-43.945,0.000
1743046830.698,-39.551,-25.391,-30.273,-41.504,0.000
1743046830.701,-40.527,-29.785,-20.020,-42.969,0.000
1743046830.705,-37.598,-23.438,-22.949,-47.363,0.000
1743046830.709,-41.016,-15.625,-27.832,-39.062,0.000
1743046830.713,-46.387,-27.832,-36.621,-41.016,0.000
1743046830.717,-33.691,-32.715,-44.434,-41.504,0.000
1743046830.721,-33.691,-29.297,-39.551,-44.434,0.000
1743046830.725,-43.457,-21.973,-26.855,-49.805,0.000
1743046830.729,-43.945,-29.297,-20.508,-48.340,0.000
1743046830.733,-40.527,-40.527,-16.113,-42.969,0.000
1743046830.737,-39.551,-35.156,-18.066,-35.156,0.000
1743046830.740,-43.457,-26.367,-29.785,-33.691,0.000
1743046830.744,-49.805,-28.809,-27.832,-31.250,0.000
1743046830.748,-46.875,-28.320,-14.160,-24.414,0.000
1743046830.752,0.000,-32.227,-13.184,-30.273,0.000
1743046830.756,0.000,-36.133,-19.043,-38.574,0.000
1743046830.760,0.000,-33.691,-26.367,-42.969,0.000
1743046830.764,0.000,-34.180,-36.621,-38.574,0.000
1743046830.768,0.000,-31.250,-28.320,-23.926,0.000
1743046830.772,0.000,-23.438,-16.602,-23.438,0.000
1743046830.776,0.000,-26.367,-20.996,-35.645,0.000
1743046830.780,0.000,-39.062,-30.762,-36.621,0.000
1743046830.783,0.000,-33.691,-31.250,-37.109,0.000
1743046830.787,0.000,-34.180,-32.715,-44.434,0.000
1743046830.791,0.000,-41.504,-45.898,-39.062,0.000
1743046830.795,0.000,-38.086,-46.875,-34.668,0.000
1743046830.799,-38.574,-39.062,-36.133,-39.551,0.000
1743046830.803,-31.250,-43.457,-27.832,-41.992,0.000
1743046830.807,-42.480,-48.340,-25.879,-38.086,0.000
1743046830.811,-50.293,-47.363,-36.133,-38.086,0.000
1743046830.815,-31.250,-39.551,-40.527,-37.109,0.000
1743046830.819,-34.668,-35.645,-38.086,-33.203,0.000
1743046830.823,-50.781,-41.992,-41.992,-39.062,0.000
1743046830.826,-46.387,-48.340,-41.992,-47.363,0.000
1743046830.830,-46.387,-44.434,-39.062,-41.992,0.000
1743046830.834,-48.340,-38.086,-39.551,-37.109,0.000
1743046830.838,-44.922,-44.434,-42.480,-40.039,0.000
1743046830.842,-41.504,-46.387,-42.480,-33.691,0.000
1743046830.846,-35.156,-38.574,0.000,-25.879,0.000
1743046830.850,-36.133,-39.551,0.000,-35.645,0.000
1743046830.854,-31.250,-37.109,0.000,-34.668,0.000
1743046830.858,-40.039,-36.133,0.000,-31.738,0.000
1743046830.862,-42.480,-36.621,0.000,-33.691,0.000
1743046830.865,-43.457,-30.762,0.000,-32.227,0.000
1743046830.869,-46.875,-36.621,0.000,-34.180,0.000
1743046830.873,-40.039,-41.992,0.000,-23.438,0.000
1743046830.877,-36.621,-31.250,0.000,-16.602,0.000
1743046830.881,-41.016,-28.809,0.000,-25.879,0.000
1743046830.885,-46.875,-28.320,0.000,-35.156,0.000
1743046830.889,-49.805,-30.273,0.000,-47.363,0.000
1743046830.893,-42.480,-32.715,-42.480,-44.434,0.000
1743046830.897,-41.504,-28.809,-35.156,-37.109,0.000
1743046830.901,-43.945,-26.855,-30.762,-33.203,0.000
1743046830.905,-30.273,-25.391,-35.156,-32.227,0.000
1743046830.908,-25.391,-26.367,-33.691,-30.273,0.000
1743046830.912,-22.949,-22.949,-18.066,-16.602,0.000
1743046830.916,-26.855,-26.367,-15.625,-11.719,0.000
1743046830.920,-31.738,-27.344,-17.090,-8.789,0.000
1743046830.924,-29.785,-28.809,-16.113,-9.766,0.000
1743046830.928,-26.855,-33.203,-21.973,-13.672,0.000
1743046830.932,-20.508,-32.715,-26.367,-17.578,0.000
1743046830.936,-18.555,-37.109,-22.461,-18.066,0.000
1743046830.940,-12.695,-39.062,-15.625,-19.043,0.000
1743046830.944,-14.160,-37.598,-12.695,-18.066,0.000
1743046830.948,-22.461,-35.645,-11.230,-19.043,0.000
1743046830.951,-28.320,-34.668,-11.230,-27.832,0.000
1743046830.955,-31.250,-35.156,-10.254,-33.691,0.000
1743046830.959,-35.156,-34.180,-6.836,-33.203,0.000
1743046830.963,-28.809,-37.109,-10.254,-28.320,0.000
1743046830.967,-27.344,-36.621,-8.789,-20.508,0.000
1743046830.971,-38.574,-34.180,-15.137,-24.902,0.000
1743046830.975,-45.898,-37.598,-26.367,-41.016,0.000
1743046830.979,-43.945,-36.621,-23.926,-42.480,0.000
1743046830.983,-36.621,-32.227,-24.902,-39.551,0.000
1743046830.987,-40.527,-33.691,-34.668,-45.898,0.000
1743046830.990,-40.527,-36.621,-41.504,-45.898,0.000
1743046830.994,-40.039,-38.574,-40.527,-44.922,0.000
1743046830.998,-35.156,-34.180,-35.645,-49.316,0.000
1743046831.002,-27.832,-35.645,-38.086,-53.223,0.000
1743046831.006,-39.551,-36.133,-38.086,-47.852,0.000
1743046831.010,-45.898,-36.133,-34.668,-43.945,0.000
1743046831.014,-34.180,-35.156,-37.598,-42.969,0.000
1743046831.018,-32.715,-27.344,-40.527,-42.480,0.000
1743046831.022,-41.504,-32.715,-41.992,-44.434,0.000
1743046831.026,-45.410,-38.086,-41.016,-47.852,0.000
1743046831.030,-47.363,-37.109,-48.340,-50.293,0.000
1743046831.033,-38.574,-32.227,-48.340,-43.945,0.000
1743046831.037,-28.320,-32.227,-44.434,-40.527,0.000
1743046831.041,-33.691,-40.039,-48.828,-53.711,0.000
1743046831.045,-43.457,-42.480,-51.758,-61.035,0.000
1743046831.049,-40.039,-37.598,-44.434,-54.688,0.000
1743046831.053,-29.297,-20.996,-29.785,-47.363,0.000
1743046831.057,-21.484,-18.555,-23.438,-46.875,0.000
1743046831.061,-10.742,-29.297,-25.879,-44.922,0.000
1743046831.065,-6.836,-30.273,-28.320,-32.227,0.000
1743046831.069,-24.902,-32.715,-29.297,-32.715,0.000
1743046831.073,-41.016,-37.109,-30.762,-36.133,0.000
1743046831.076,-32.227,-33.203,-31.250,-27.832,0.000
1743046831.080,-32.715,-25.879,-24.902,-30.273,0.000
1743046831.084,-31.250,-23.926,-17.090,-25.391,0.000
1743046831.088,-23.926,-30.762,-19.531,-15.137,0.000
1743046831.092,-27.344,-37.598,-28.809,-19.531,0.000
1743046831.096,-26.367,-37.109,-32.227,-28.809,0.000
1743046831.100,-24.414,-25.391,-33.691,-27.832,0.000
1743046831.104,-18.066,-18.066,-33.203,-19.531,0.000
1743046831.108,-16.113,-28.809,-32.227,-21.973,0.000
1743046831.112,-16.113,-34.668,-27.344,-23.438,0.000
1743046831.115,-11.719,-31.250,-27.832,-23.438,0.000
1743046831.119,-15.625,-30.762,-34.180,-17.578,0.000
1743046831.123,-15.625,-30.762,-27.832,-17.090,0.000
1743046831.127,-29.297,-37.109,-20.996,-32.227,0.000
1743046831.131,-46.875,-45.410,-25.879,-43.945,0.000
1743046831.135,-44.434,-44.922,-29.785,-44.922,0.000
1743046831.139,-47.363,-39.062,-35.645,-41.016,0.000
1743046831.143,-46.875,-38.574,-38.574,-37.598,0.000
1743046831.147,-42.480,-38.574,-34.180,-35.645,0.000
1743046831.151,-40.039,-42.480,-31.250,-41.504,0.000
1743046831.155,-39.062,-49.805,-29.785,-42.969,0.000
1743046831.158,-41.504,-52.246,-28.809,-35.645,0.000
1743046831.162,-35.645,-52.246,-36.133,-40.039,0.000
1743046831.166,-38.574,-49.805,-43.457,-41.992,0.000
1743046831.170,-39.551,-52.246,-41.504,-31.738,0.000
1743046831.174,-29.785,-51.270,-40.039,-28.320,0.000
1743046831.178,-21.973,-37.109,-30.762,-28.809,0.000
1743046831.182,-20.996,-30.762,-19.531,-20.508,0.000
1743046831.186,-16.113,-34.180,-29.785,-24.902,0.000
1743046831.190,-29.785,-35.645,-37.598,-33.203,0.000
1743046831.194,-36.133,-28.320,-27.832,-32.227,0.000
1743046831.198,-35.156,-26.367,-27.832,-37.598,0.000
1743046831.201,-28.809,-37.598,-30.273,-40.039,0.000
1743046831.205,-20.996,-36.621,-22.461,-32.715,0.000
1743046831.209,-17.578,-35.645,-22.949,-37.109,0.000
1743046831.213,-30.762,-44.922,-23.438,-40.039,0.000
1743046831.217,-45.410,-50.781,-27.344,-35.156,0.000
1743046831.221,-40.527,-40.039,-26.855,-36.621,0.000
1743046831.225,-35.156,-31.250,-17.578,-35.156,0.000
1743046831.229,-31.250,-27.344,-12.207,-22.461,0.000
1743046831.233,-38.574,-34.180,-21.973,-28.320,0.000
1743046831.237,-49.805,-43.457,-27.344,-37.598,0.000
1743046831.240,-49.805,-38.574,-17.578,-38.086,0.000
1743046831.244,-49.316,-40.527,-25.879,-48.828,0.000
1743046831.248,-33.203,-45.898,-34.180,-44.434,0.000
1743046831.252,-35.156,-48.828,-39.062,-38.086,0.000
1743046831.256,-45.410,-43.457,-48.828,-48.828,0.000
1743046831.260,-39.062,-31.250,-41.016,-57.129,0.000
1743046831.264,-41.016,-37.109,-28.320,-53.223,0.000
1743046831.268,0.000,-38.574,-27.344,-45.898,0.000
1743046831.272,0.000,-34.180,-29.785,-43.945,0.000
1743046831.276,0.000,-40.039,-34.668,-44.434,0.000
1743046831.280,0.000,-37.109,-34.180,-41.016,0.000
1743046831.283,0.000,-30.273,-32.715,-42.480,0.000
1743046831.287,0.000,-31.738,-33.691,-41.504,0.000
1743046831.291,0.000,-33.203,-34.668,-38.086,0.000
1743046831.295,0.000,-36.621,-35.156,-40.527,0.000
1743046831.299,0.000,-36.621,-31.250,-38.574,0.000
1743046831.303,0.000,-36.133,-28.809,-38.574,0.000
1743046831.307,0.000,-33.691,-31.250,-38.574,0.000
1743046831.311,0.000,-33.203,-31.738,-29.785,0.000
1743046831.315,-22.949,-35.156,-30.762,-31.738,0.000
1743046831.319,-40.527,-42.480,-34.668,-44.434,0.000
1743046831.323,-39.551,-42.969,-33.203,-39.551,0.000
1743046831.326,-21.484,-39.551,-25.391,-30.273,0.000
1743046831.330,-20.020,-37.598,-23.926,-34.668,0.000
1743046831.334,-31.738,-24.902,-21.484,-28.809,0.000
1743046831.338,-24.414,-28.809,-19.043,-17.090,0.000
1743046831.342,-13.672,-39.551,-29.785,-24.902,0.000
1743046831.346,-21.973,-40.527,-41.016,-30.273,0.000
1743046831.350,-29.785,-41.016,-38.086,-21.484,0.000
1743046831.354,-11.230,-32.715,-31.738,-17.578,0.000
1743046831.358,5.371,-28.320,-24.414,-15.137,0.000
1743046831.362,-12.207,-37.109,-19.531,-20.508,0.000
1743046831.365,-25.879,-34.668,-22.461,-12.207,0.000
1743046831.369,-13.672,-35.645,-18.555,-2.930,0.000
1743046831.373,-21.973,-41.504,-18.066,-17.090,0.000
1743046831.377,-32.227,-42.480,-25.879,-28.320,0.000
1743046831.381,-28.809,-37.109,-28.809,-26.855,0.000
1743046831.385,-26.367,-35.645,-23.926,-15.625,0.000
1743046831.389,-16.602,-41.504,-24.902,-24.902,0.000
1743046831.393,-33.691,-44.434,-28.320,-32.227,0.000
1743046831.397,-34.668,-44.922,-35.645,-38.574,0.000
1743046831.401,-21.484,-40.039,-31.738,-37.598,0.000
1743046831.405,-26.855,-32.227,-27.344,-34.668,0.000
1743046831.408,0.000,-31.738,-28.809,-36.133,0.000
1743046831.412,0.000,-34.668,-28.809,-33.691,0.000
1743046831.416,0.000,-39.062,-29.785,-37.598,0.000
1743046831.420,0.000,-41.504,-33.691,-43.457,0.000
1743046831.424,0.000,-38.574,-35.645,-33.203,0.000
1743046831.428,0.000,-35.156,-36.621,-19.043,0.000
1743046831.432,0.000,-37.598,-37.598,-20.996,0.000
1743046831.436,0.000,-40.527,-37.598,-35.156,0.000
1743046831.440,0.000,-36.621,-44.922,-46.387,0.000
1743046831.444,0.000,-44.434,-51.758,-47.363,0.000
1743046831.448,0.000,-52.734,-51.758,-32.227,0.000
1743046831.451,0.000,-41.992,-42.969,-18.066,0.000
1743046831.455,-26.855,-36.133,-31.738,-31.738,0.000
1743046831.459,-47.363,-41.504,-30.273,-39.062,0.000
1743046831.463,-48.340,-42.480,-30.762,-30.273,0.000
1743046831.467,-41.504,-42.480,-32.715,-33.691,0.000
1743046831.471,-41.992,-45.410,-34.668,-38.086,0.000
1743046831.475,-38.574,-41.016,-31.250,-19.043,0.000
1743046831.479,-32.227,-42.969,-33.691,-0.488,0.000
1743046831.483,-3.418,-42.969,-39.551,16.602,0.000
1743046831.487,2.441,-49.316,-36.621,18.555,0.000
1743046831.490,-15.625,-51.270,-22.461,13.184,0.000
