timestamps,TP9,AF7,AF8,TP10,Right AUX
1743625647.142,-20.996,-21.973,-32.715,-27.344,0.000
1743625647.145,-22.461,-25.391,-30.273,-21.484,0.000
1743625647.149,-25.391,-29.785,-24.902,-18.555,0.000
1743625647.153,-15.137,-32.715,-23.926,-19.531,0.000
1743625647.157,-13.672,-30.273,-29.297,-23.926,0.000
1743625647.161,-2.930,-25.879,-32.715,-29.297,0.000
1743625647.165,-20.508,-30.762,-32.227,-23.438,0.000
1743625647.169,-40.039,-34.668,-36.621,-18.555,0.000
1743625647.173,-35.645,-32.227,-34.668,-21.484,0.000
1743625647.177,-36.621,-31.738,-27.832,-24.414,0.000
1743625647.181,-29.785,-28.320,-25.879,-19.531,0.000
1743625647.185,-26.855,-30.762,-27.344,-17.578,0.000
1743625647.185,-26.855,-30.762,-27.344,-17.578,0.000
1743625647.188,-21.973,-31.738,-27.832,-17.578,0.000
1743625647.192,-15.625,-28.809,-26.367,-9.277,0.000
1743625647.196,-18.555,-30.762,-24.414,-8.789,0.000
1743625647.200,-20.508,-30.762,-29.297,-17.578,0.000
1743625647.204,-23.926,-33.203,-29.785,-18.066,0.000
1743625647.208,-28.320,-36.621,-33.203,-20.508,0.000
1743625647.212,-23.438,-42.480,-35.645,-22.949,0.000
1743625647.216,-20.996,-38.086,-32.715,-22.949,0.000
1743625647.220,-21.973,-32.715,-32.227,-26.367,0.000
1743625647.224,-20.996,-31.738,-31.250,-26.367,0.000
1743625647.227,-23.438,-30.273,-29.297,-25.391,0.000
1743625647.231,-32.715,-37.109,-29.297,-28.320,0.000
1743625647.235,-29.297,-37.598,-30.762,-26.855,0.000
1743625647.239,-23.438,-29.785,-29.297,-20.508,0.000
1743625647.243,-23.926,-24.902,-26.855,-20.508,0.000
1743625647.247,-22.461,-23.438,-26.855,-21.973,0.000
1743625647.251,-28.320,-27.832,-26.855,-27.832,0.000
1743625647.255,-36.133,-25.391,-24.414,-31.250,0.000
1743625647.259,-29.785,-24.414,-24.902,-20.020,0.000
1743625647.263,-23.438,-30.273,-24.414,-19.531,0.000
1743625647.267,-30.762,-29.297,-25.391,-31.250,0.000
1743625647.270,-33.691,-29.297,-23.926,-38.086,0.000
1743625647.274,-40.527,-34.668,-23.926,-44.434,0.000
1743625647.278,-41.016,-32.227,-32.715,-45.898,0.000
1743625647.282,-26.855,-26.855,-35.156,-45.898,0.000
1743625647.286,-26.855,-26.855,-33.203,-47.363,0.000
1743625647.290,-38.574,-27.832,-32.227,-46.387,0.000
1743625647.294,-36.621,-31.250,-32.715,-44.922,0.000
1743625647.298,-42.969,-38.574,-31.250,-41.016,0.000
1743625647.302,-52.734,-40.039,-37.109,-47.852,0.000
1743625647.306,-45.410,-38.086,-45.410,-57.617,0.000
1743625647.310,-37.598,-39.551,-41.016,-49.805,0.000
1743625647.313,-34.668,-34.180,-37.598,-40.527,0.000
1743625647.317,-32.715,-25.879,-44.434,-43.457,0.000
1743625647.321,-32.227,-26.855,-38.086,-45.898,0.000
1743625647.325,-43.945,-36.133,-34.180,-47.852,0.000
1743625647.329,-40.039,-26.855,-32.715,-40.527,0.000
1743625647.333,-39.551,-22.461,-28.320,-32.715,0.000
1743625647.337,-50.293,-34.668,-42.480,-49.805,0.000
1743625647.341,-49.316,-28.320,-44.922,-59.570,0.000
1743625647.345,-45.898,-18.555,-35.156,-53.223,0.000
1743625647.349,-51.270,-14.648,-32.227,-62.500,0.000
1743625647.352,-62.988,-12.207,-32.227,-75.684,0.000
1743625647.356,-74.219,-10.254,-32.715,-88.867,0.000
1743625647.360,-90.820,-3.906,-40.039,-109.863,0.000
1743625647.364,-95.215,2.441,-47.852,-119.141,0.000
1743625647.368,-110.352,4.395,-34.668,-129.883,0.000
1743625647.372,-148.926,0.977,-32.227,-170.898,0.000
1743625647.376,-180.664,-1.465,-45.410,-207.031,0.000
1743625647.380,-193.359,3.906,-44.922,-218.262,0.000
1743625647.384,-223.633,4.883,-44.434,-241.211,0.000
1743625647.388,-260.742,1.953,-56.641,-270.508,0.000
1743625647.392,-277.832,0.000,-55.664,-286.133,0.000
1743625647.395,-301.270,-7.812,-50.293,-310.547,0.000
1743625647.399,-314.453,-20.508,-52.734,-327.637,0.000
1743625647.403,-320.312,-24.902,-48.828,-344.238,0.000
1743625647.407,-332.031,-29.785,-43.457,-348.633,0.000
1743625647.411,-328.125,-33.203,-39.062,-340.332,0.000
1743625647.415,-319.336,-30.273,-38.086,-335.449,0.000
1743625647.419,-311.523,-39.062,-39.062,-320.801,0.000
1743625647.423,-302.734,-42.480,-33.691,-299.805,0.000
1743625647.427,-290.527,-33.691,-33.203,-278.809,0.000
1743625647.431,-270.996,-35.645,-33.203,-256.348,0.000
1743625647.435,-244.141,-37.598,-34.668,-233.398,0.000
1743625647.438,-221.191,-46.875,-42.480,-211.426,0.000
1743625647.442,-199.707,-55.664,-40.527,-190.918,0.000
1743625647.446,-165.039,-57.129,-31.738,-164.062,0.000
1743625647.450,-146.484,-64.941,-33.691,-139.648,0.000
1743625647.454,-123.535,-61.035,-34.180,-113.281,0.000
1743625647.458,-102.051,-49.805,-34.180,-83.008,0.000
1743625647.462,-86.426,-52.246,-37.598,-68.359,0.000
1743625647.466,-69.824,-65.430,-36.621,-56.641,0.000
1743625647.470,0.000,-55.664,-38.086,-40.527,0.000
1743625647.474,0.000,-42.480,-37.598,-29.297,0.000
1743625647.477,0.000,-46.387,-32.227,-20.508,0.000
1743625647.481,0.000,-58.594,-31.250,-12.695,0.000
1743625647.485,0.000,-63.965,-33.203,-3.906,0.000
1743625647.489,0.000,-51.270,-29.297,13.672,0.000
1743625647.493,0.000,-44.434,-29.297,15.625,0.000
1743625647.497,0.000,-50.293,-29.785,11.230,0.000
1743625647.501,0.000,-51.270,-30.762,12.207,0.000
1743625647.505,0.000,-47.363,-27.344,16.113,0.000
1743625647.509,0.000,-43.945,-26.855,12.695,0.000
1743625647.513,0.000,-43.457,-31.738,5.371,0.000
1743625647.517,24.414,-41.504,-28.320,12.695,0.000
1743625647.520,26.367,-40.039,-24.414,16.113,0.000
1743625647.524,38.086,-38.574,-20.508,19.531,0.000
1743625647.528,40.039,-40.039,-19.531,22.461,0.000
1743625647.532,29.785,-41.504,-25.391,22.461,0.000
1743625647.536,28.809,-43.457,-25.391,28.809,0.000
1743625647.540,34.180,-46.387,-23.926,22.461,0.000
1743625647.544,33.691,-44.434,-25.391,21.973,0.000
1743625647.548,29.785,-53.711,-23.438,27.832,0.000
1743625647.552,33.203,-58.105,-20.996,25.391,0.000
1743625647.556,39.551,-36.621,-18.066,25.391,0.000
1743625647.560,15.625,-35.645,-21.484,22.949,0.000
1743625647.563,0.000,-48.828,-23.438,20.508,0.000
1743625647.567,0.000,-44.922,-19.531,27.344,0.000
1743625647.571,0.000,-40.039,-22.949,29.785,0.000
1743625647.575,0.000,-36.133,-31.250,24.414,0.000
1743625647.579,0.000,-29.297,-30.273,26.855,0.000
1743625647.583,0.000,-37.598,-25.391,24.414,0.000
1743625647.587,0.000,-42.969,-27.344,21.484,0.000
1743625647.591,0.000,-36.133,-28.809,21.973,0.000
1743625647.595,0.000,-34.668,-26.367,17.090,0.000
1743625647.599,0.000,-41.504,-28.809,8.301,0.000
1743625647.602,0.000,-42.480,-28.809,1.953,0.000
1743625647.606,0.000,-41.992,-24.414,4.883,0.000
1743625647.610,18.066,-37.598,-25.391,13.184,0.000
1743625647.614,16.113,-31.738,-25.879,16.602,0.000
1743625647.618,2.441,-44.434,-25.879,18.555,0.000
1743625647.622,3.906,-44.922,-31.250,14.160,0.000
1743625647.626,12.207,-26.367,-29.297,11.719,0.000
1743625647.630,7.812,-22.461,-22.949,14.648,0.000
1743625647.634,7.812,-32.715,-21.484,11.719,0.000
1743625647.638,4.395,-35.156,-25.391,5.371,0.000
1743625647.642,-1.465,-36.621,-21.973,7.324,0.000
1743625647.645,-0.488,-36.133,-20.020,11.719,0.000
1743625647.649,6.836,-37.109,-21.973,17.090,0.000
1743625647.653,8.789,-33.203,-21.973,17.090,0.000
1743625647.657,-5.371,-30.762,-30.762,-3.906,0.000
1743625647.661,-14.160,-31.738,-35.156,-12.695,0.000
1743625647.665,-10.254,-37.598,-37.109,-11.230,0.000
1743625647.669,-10.254,-32.715,-32.715,-14.160,0.000
1743625647.673,-13.672,-41.504,-30.273,-6.836,0.000
1743625647.677,-19.043,-48.340,-31.738,0.977,0.000
1743625647.681,-7.812,-40.039,-29.785,3.906,0.000
1743625647.685,8.301,-46.875,-24.414,2.441,0.000
1743625647.688,7.324,-50.781,-20.508,-2.441,0.000
1743625647.692,4.395,-33.203,-25.879,-1.953,0.000
1743625647.696,8.789,-23.438,-28.320,-1.953,0.000
1743625647.700,8.789,-29.297,-29.785,-11.230,0.000
1743625647.704,12.695,-34.668,0.000,-4.883,0.000
1743625647.708,16.602,-33.691,0.000,-2.930,0.000
1743625647.712,12.695,-34.668,0.000,-11.230,0.000
1743625647.716,2.441,-39.062,0.000,-11.230,0.000
1743625647.720,-12.695,-40.527,0.000,-11.719,0.000
1743625647.724,-12.207,-31.250,0.000,-13.184,0.000
1743625647.727,-6.348,-32.227,0.000,-10.742,0.000
1743625647.731,-6.836,-41.504,0.000,-5.859,0.000
1743625647.735,-4.883,-34.668,0.000,0.000,0.000
1743625647.739,5.859,-29.297,0.000,-1.465,0.000
1743625647.743,13.184,-35.645,0.000,-9.277,0.000
1743625647.747,6.836,-34.668,0.000,-5.371,0.000
1743625647.751,2.441,-35.645,-21.973,-8.789,0.000
1743625647.755,-1.953,-41.504,-27.832,-9.766,0.000
1743625647.759,-4.395,-39.551,-27.344,-4.395,0.000
1743625647.763,-0.488,-35.156,-22.461,-2.930,0.000
1743625647.767,-1.953,-30.273,-20.996,2.930,0.000
1743625647.770,-3.418,-28.320,-20.996,5.371,0.000
1743625647.774,0.488,-26.855,-18.066,9.277,0.000
1743625647.778,-0.488,-27.344,-15.625,8.789,0.000
1743625647.782,1.465,-35.645,-19.043,-1.953,0.000
1743625647.786,5.371,-36.133,-15.625,-0.488,0.000
1743625647.790,-3.906,-35.156,-16.113,-0.488,0.000
1743625647.794,-14.160,-37.109,-23.926,-3.906,0.000
1743625647.798,-10.742,-32.227,-29.785,-3.906,0.000
1743625647.802,-11.719,-32.227,-30.273,-14.160,0.000
1743625647.806,-20.020,-36.133,-30.762,-14.160,0.000
1743625647.810,-19.531,-36.621,-34.180,-10.254,0.000
1743625647.813,-15.137,-24.902,-33.691,-13.672,0.000
1743625647.817,-16.113,-19.531,-38.086,-15.137,0.000
1743625647.821,-10.742,-28.809,-38.086,-15.137,0.000
1743625647.825,2.930,-30.273,-32.227,2.930,0.000
1743625647.829,0.000,-22.461,-36.133,14.160,0.000
1743625647.833,-15.625,-19.531,-42.969,-7.812,0.000
1743625647.837,-15.137,-18.555,-41.016,-14.160,0.000
1743625647.841,-1.953,-19.531,-42.480,-13.672,0.000
1743625647.845,0.000,-25.391,0.000,-26.367,0.000
1743625647.849,-9.277,-30.273,0.000,-30.273,0.000
1743625647.852,-17.090,-33.691,0.000,-33.691,0.000
1743625647.856,-20.508,-28.320,0.000,-41.016,0.000
1743625647.860,-21.973,-21.973,0.000,-35.645,0.000
1743625647.864,-13.672,-20.508,0.000,-39.062,0.000
1743625647.868,-10.254,-24.414,0.000,-38.086,0.000
1743625647.872,-11.230,-23.926,0.000,-20.996,0.000
1743625647.876,-13.672,-23.926,0.000,-23.438,0.000
1743625647.880,-7.812,-33.691,0.000,-29.785,0.000
1743625647.884,2.930,-40.039,0.000,-20.508,0.000
1743625647.888,3.418,-34.668,0.000,-19.531,0.000
1743625647.892,-5.859,-28.809,-42.969,-10.742,0.000
1743625647.895,-1.953,-36.621,-37.109,-7.324,0.000
1743625647.899,3.418,-38.086,-37.598,-13.184,0.000
1743625647.903,-4.883,-25.391,-32.715,-13.672,0.000
1743625647.907,-9.277,-12.695,-25.879,-9.277,0.000
1743625647.911,-14.648,-15.625,-24.902,-14.160,0.000
1743625647.915,-22.949,-31.250,-24.414,-19.043,0.000
1743625647.919,-21.484,-42.969,-29.785,-22.461,0.000
1743625647.923,-19.531,-34.180,-31.738,-25.879,0.000
1743625647.927,-26.367,-21.973,-27.344,-23.438,0.000
1743625647.931,-20.996,-23.926,-28.320,-21.973,0.000
1743625647.935,-16.113,-31.738,-27.344,-25.391,0.000
1743625647.938,-18.066,-25.391,-22.461,-24.414,0.000
1743625647.942,-20.996,-23.926,-26.367,-26.367,0.000
1743625647.946,-22.949,-34.668,-30.762,-28.809,0.000
1743625647.950,-18.066,-39.062,-26.855,-24.414,0.000
1743625647.954,-12.695,-35.645,-24.902,-14.160,0.000
1743625647.958,-9.277,-32.715,-28.320,-11.719,0.000
1743625647.962,-3.418,-36.133,-32.715,-19.531,0.000
1743625647.966,-0.488,-30.273,-25.391,-15.625,0.000
1743625647.970,-8.789,-28.320,-23.926,-21.484,0.000
1743625647.974,-12.207,-28.809,-34.180,-30.762,0.000
1743625647.977,-15.137,-22.949,-31.738,-25.391,0.000
1743625647.981,-28.809,-15.137,-27.832,-21.484,0.000
1743625647.985,0.000,-20.996,0.000,-20.996,0.000
1743625647.989,0.000,-41.016,0.000,-26.855,0.000
1743625647.993,0.000,-36.133,0.000,-28.809,0.000
1743625647.997,0.000,-19.043,0.000,-27.344,0.000
1743625648.001,0.000,-20.508,0.000,-42.480,0.000
1743625648.005,0.000,-27.344,0.000,-49.805,0.000
1743625648.009,0.000,-32.715,0.000,-43.457,0.000
1743625648.013,0.000,-33.691,0.000,-35.156,0.000
1743625648.017,0.000,-32.227,0.000,-32.227,0.000
1743625648.020,0.000,-28.320,0.000,-30.273,0.000
1743625648.024,0.000,-21.973,0.000,-24.902,0.000
1743625648.028,0.000,-20.508,0.000,-25.879,0.000
1743625648.032,-16.602,-23.438,-32.715,-25.879,0.000
1743625648.036,-11.230,-27.832,-34.668,-29.297,0.000
1743625648.040,-15.137,-29.785,-32.227,-34.180,0.000
1743625648.044,-19.531,-31.250,-34.180,-34.668,0.000
1743625648.048,-22.461,-31.250,-37.598,-39.551,0.000
1743625648.052,-26.855,-30.762,-35.645,-38.574,0.000
1743625648.056,-32.227,-33.691,-33.203,-32.715,0.000
1743625648.060,-33.691,-38.574,-32.227,-33.691,0.000
1743625648.063,-33.203,-37.598,-39.062,-44.434,0.000
1743625648.067,-30.273,-37.109,-36.621,-39.551,0.000
1743625648.071,-29.297,-34.180,-27.832,-29.785,0.000
1743625648.075,-31.250,-27.832,-27.832,-26.855,0.000
1743625648.079,-33.691,-28.320,-33.203,-28.320,0.000
1743625648.083,-32.227,-36.133,-35.156,-28.320,0.000
1743625648.087,-31.738,-40.039,-30.762,-25.879,0.000
1743625648.091,-34.180,-32.227,-32.715,-39.062,0.000
1743625648.095,-33.691,-24.902,-37.109,-41.992,0.000
1743625648.099,-24.414,-20.508,-31.738,-28.809,0.000
1743625648.102,-13.184,-22.461,-32.715,-24.902,0.000
1743625648.106,-13.184,-27.832,-33.203,-19.043,0.000
1743625648.110,-13.184,-25.879,-24.902,-11.719,0.000
1743625648.114,-15.625,-28.809,-27.832,-16.113,0.000
1743625648.118,-33.203,-33.203,-35.156,-26.367,0.000
1743625648.122,-44.922,-35.645,-33.203,-26.855,0.000
1743625648.126,-35.645,-34.668,-35.156,-23.926,0.000
1743625648.130,-30.762,-34.180,-33.203,-23.926,0.000
1743625648.134,-31.738,-30.273,-28.809,-25.391,0.000
1743625648.138,-30.273,-35.156,-26.855,-28.320,0.000
1743625648.142,-30.273,-36.621,-22.461,-22.461,0.000
1743625648.145,-30.762,-28.320,-23.926,-22.461,0.000
1743625648.149,-32.715,-29.297,-28.320,-26.855,0.000
1743625648.153,-28.809,-25.391,-31.250,-26.367,0.000
1743625648.157,-23.438,-24.902,-33.203,-32.715,0.000
1743625648.161,-13.672,-33.691,-29.785,-26.367,0.000
1743625648.165,-22.461,-37.598,-25.879,-21.973,0.000
1743625648.169,-26.855,-31.738,-27.832,-21.973,0.000
1743625648.173,-20.508,-29.297,-26.855,-12.695,0.000
1743625648.177,-25.879,-32.715,-27.832,-20.020,0.000
1743625648.181,-22.461,-33.203,-30.273,-27.832,0.000
1743625648.185,-17.090,-35.156,-33.203,-25.391,0.000
1743625648.188,-18.066,-35.156,-36.133,-26.855,0.000
1743625648.192,-20.508,-35.156,-36.133,-28.320,0.000
1743625648.196,-22.949,-33.691,-30.273,-26.367,0.000
1743625648.200,-34.180,-32.227,-32.227,-27.832,0.000
1743625648.204,-41.504,-36.621,-40.039,-34.180,0.000
1743625648.208,-38.086,-44.434,-40.039,-34.180,0.000
1743625648.212,-31.738,-43.457,-37.109,-30.273,0.000
1743625648.216,-34.668,-44.922,-37.109,-33.691,0.000
1743625648.220,-41.016,-39.551,-39.062,-41.992,0.000
1743625648.224,-48.828,-41.016,-41.504,-46.875,0.000
1743625648.228,-40.039,-45.410,-39.551,-43.457,0.000
1743625648.231,-25.391,-37.109,-36.133,-37.598,0.000
1743625648.235,-20.020,-29.785,-37.109,-37.598,0.000
1743625648.239,-19.531,-21.484,-30.273,-35.645,0.000
1743625648.243,-26.367,-32.227,-26.367,-34.668,0.000
1743625648.247,-35.645,-38.086,-31.738,-33.203,0.000
1743625648.251,-38.574,-23.926,-26.367,-22.949,0.000
1743625648.255,-28.809,-20.996,-19.531,-18.066,0.000
1743625648.259,-29.785,-17.090,-22.949,-20.020,0.000
1743625648.263,-28.809,-17.090,-21.973,-21.973,0.000
1743625648.267,-22.949,-28.809,-19.043,-16.602,0.000
1743625648.270,-20.996,-25.391,-19.531,-14.648,0.000
1743625648.274,-26.367,-28.320,-19.531,-20.020,0.000
1743625648.278,-29.785,-34.668,-22.949,-23.926,0.000
1743625648.282,-30.273,-29.785,-23.926,-22.949,0.000
1743625648.286,-32.715,-23.438,-28.809,-26.367,0.000
1743625648.290,-22.461,-20.508,-31.738,-25.391,0.000
1743625648.294,-20.996,-23.926,-28.320,-16.602,0.000
1743625648.298,-31.738,-35.156,-21.973,-22.461,0.000
1743625648.302,-27.832,-35.156,-21.973,-27.832,0.000
1743625648.306,-20.020,-38.574,-21.973,-15.625,0.000
1743625648.310,-16.602,-38.086,-22.461,-7.812,0.000
1743625648.313,-15.625,-32.715,-15.137,0.977,0.000
1743625648.317,-13.184,-32.227,-2.441,9.277,0.000
1743625648.321,-8.789,-30.762,2.930,9.277,0.000
1743625648.325,-14.160,-37.109,1.953,13.672,0.000
1743625648.329,-21.973,-39.551,-1.465,13.672,0.000
1743625648.333,-22.461,-35.156,-0.488,13.672,0.000
1743625648.337,-16.113,-35.645,-0.488,19.531,0.000
1743625648.341,-20.020,-41.016,-8.789,8.301,0.000
1743625648.345,-21.484,-37.109,-15.137,-6.836,0.000
1743625648.349,-17.090,-39.062,-13.184,-7.812,0.000
1743625648.353,-23.926,-55.176,-18.066,-9.766,0.000
1743625648.356,-37.598,-48.828,-21.484,-15.137,0.000
1743625648.360,-34.668,-36.133,-18.555,-9.766,0.000
1743625648.364,-27.832,-32.715,-17.090,-6.836,0.000
1743625648.368,-31.250,-32.227,-19.531,-10.742,0.000
1743625648.372,-22.949,-32.715,-17.090,-12.695,0.000
1743625648.376,-9.766,-34.180,-8.301,-10.254,0.000
1743625648.380,-12.207,-26.367,-14.160,-14.648,0.000
1743625648.384,-27.832,-18.555,-21.973,-19.531,0.000
1743625648.388,-28.809,-17.090,-23.438,-20.020,0.000
1743625648.392,-23.926,-27.344,-24.414,-25.391,0.000
1743625648.395,-23.438,-35.645,-26.855,-22.949,0.000
1743625648.399,-26.367,-30.762,-31.250,-15.137,0.000
1743625648.403,-37.109,-37.109,-28.809,-14.160,0.000
1743625648.407,-41.992,-43.945,-24.414,-20.508,0.000
1743625648.411,-36.133,-31.738,-26.367,-23.438,0.000
1743625648.415,-26.367,-25.879,-29.297,-20.508,0.000
1743625648.419,-29.785,-28.809,-31.250,-20.508,0.000
1743625648.423,-29.297,-29.297,-25.391,-19.531,0.000
1743625648.427,-23.926,-30.273,-24.414,-20.508,0.000
1743625648.431,-27.832,-27.832,-25.391,-14.160,0.000
1743625648.435,-26.855,-23.438,-27.344,-13.672,0.000
1743625648.438,-28.809,-23.926,-30.762,-20.508,0.000
1743625648.442,-33.691,-26.367,-29.785,-18.555,0.000
1743625648.446,-37.598,-32.227,-28.809,-24.902,0.000
1743625648.450,-38.574,-41.504,-28.809,-30.762,0.000
1743625648.454,-36.621,-57.129,-33.691,-31.738,0.000
1743625648.458,-28.809,-50.293,-37.598,-32.227,0.000
1743625648.462,-25.879,-30.762,-32.227,-31.250,0.000
1743625648.466,-37.598,-28.320,-28.320,-32.227,0.000
1743625648.470,-30.273,-33.203,-26.367,-25.391,0.000
1743625648.474,-20.996,-34.668,-26.367,-22.949,0.000
1743625648.478,-25.391,-40.039,-34.180,-29.785,0.000
1743625648.481,-32.227,-40.527,-36.133,-38.086,0.000
1743625648.485,-31.738,-33.691,-29.297,-30.762,0.000
1743625648.489,-19.531,-29.785,-31.250,-19.531,0.000
1743625648.493,-10.742,-35.156,-30.762,-20.508,0.000
1743625648.497,-11.230,-40.039,-24.414,-20.996,0.000
1743625648.501,0.000,-35.156,-21.973,-20.020,0.000
1743625648.505,0.000,-21.484,-25.879,-19.043,0.000
1743625648.509,0.000,-11.719,-27.344,-20.996,0.000
1743625648.513,0.000,-17.090,-26.855,-22.949,0.000
1743625648.517,0.000,-28.320,-26.855,-19.531,0.000
1743625648.520,0.000,-31.250,-28.809,-17.090,0.000
1743625648.524,0.000,-31.250,-35.645,-28.809,0.000
1743625648.528,0.000,-35.645,-40.039,-34.180,0.000
1743625648.532,0.000,-30.762,-36.133,-26.367,0.000
1743625648.536,0.000,-26.855,-32.715,-29.785,0.000
1743625648.540,0.000,-34.668,-34.180,-26.855,0.000
1743625648.544,0.000,-30.273,-34.668,-26.367,0.000
1743625648.548,-4.883,-24.414,-28.809,-23.926,0.000
1743625648.552,-10.742,-30.273,-30.273,-21.973,0.000
1743625648.556,-22.949,-24.902,-32.227,-29.297,0.000
1743625648.560,-23.438,-15.137,-31.738,-29.297,0.000
1743625648.563,-22.461,-18.555,-30.762,-24.902,0.000
1743625648.567,-23.438,-21.973,-37.109,-25.879,0.000
1743625648.571,-30.273,-29.785,-37.598,-26.855,0.000
1743625648.575,-37.109,-41.504,-31.250,-32.715,0.000
1743625648.579,-30.762,-41.016,-29.297,-33.203,0.000
1743625648.583,-15.137,-29.785,-32.227,-19.531,0.000
1743625648.587,-7.812,-30.273,-32.715,-5.859,0.000
1743625648.591,1.465,-33.691,-38.086,0.000,0.000
1743625648.595,9.766,-30.762,-39.551,1.953,0.000
1743625648.599,9.766,-35.156,-41.504,4.395,0.000
1743625648.603,18.066,-35.156,-39.062,8.301,0.000
1743625648.606,22.461,-26.367,-32.227,14.160,0.000
1743625648.610,21.973,-21.484,-34.180,18.066,0.000
1743625648.614,35.645,-16.602,-26.367,37.598,0.000
1743625648.618,46.875,-16.113,-18.066,46.875,0.000
1743625648.622,42.480,-21.484,-21.973,41.016,0.000
1743625648.626,30.273,-16.602,-24.414,41.992,0.000
1743625648.630,33.203,-10.742,-19.531,50.293,0.000
1743625648.634,36.133,-13.672,-22.949,51.758,0.000
1743625648.638,27.344,-13.184,-24.902,41.016,0.000
1743625648.642,21.484,-16.113,-25.879,28.320,0.000
1743625648.645,13.672,-19.043,-27.832,20.020,0.000
1743625648.649,15.625,-22.461,-28.809,15.625,0.000
1743625648.653,16.602,-27.344,-27.344,13.672,0.000
1743625648.657,12.207,-28.809,-30.273,8.301,0.000
1743625648.661,4.883,-25.879,-23.926,10.742,0.000
1743625648.665,-4.395,-20.508,-23.438,18.555,0.000
1743625648.669,0.977,-12.207,-26.367,20.020,0.000
1743625648.673,-0.488,-14.160,-19.043,12.207,0.000
1743625648.677,-11.719,-19.531,-19.531,1.953,0.000
1743625648.681,-9.277,-14.160,-20.508,0.977,0.000
1743625648.685,-10.254,-19.043,-16.602,2.930,0.000
1743625648.688,0.000,-28.320,-18.066,0.000,0.000
1743625648.692,0.000,-20.508,-23.926,0.000,0.000
1743625648.696,0.000,-11.719,-26.855,0.000,0.000
1743625648.700,0.000,-10.254,-24.414,0.000,0.000
1743625648.704,0.000,-13.184,-23.438,0.000,0.000
1743625648.708,0.000,-15.625,-27.832,0.000,0.000
1743625648.712,0.000,-18.555,-32.715,0.000,0.000
1743625648.716,0.000,-22.461,-35.645,0.000,0.000
1743625648.720,0.000,-30.762,-36.133,0.000,0.000
1743625648.724,0.000,-26.855,-34.668,0.000,0.000
1743625648.728,0.000,-20.020,-35.156,0.000,0.000
1743625648.731,0.000,-19.043,-29.785,0.000,0.000
1743625648.735,-25.879,-16.602,-24.902,-28.809,0.000
1743625648.739,-26.855,-20.508,-30.762,-27.832,0.000
1743625648.743,-24.902,-21.973,-34.668,-27.832,0.000
1743625648.747,-26.855,-22.461,-30.762,-32.227,0.000
1743625648.751,-24.414,-21.484,-29.785,-36.133,0.000
1743625648.755,-35.156,-22.461,-28.809,-35.645,0.000
1743625648.759,-44.922,-24.902,-27.832,-32.715,0.000
1743625648.763,-36.133,-20.020,-26.367,-32.227,0.000
1743625648.767,-31.250,-25.391,-31.250,-34.180,0.000
1743625648.770,-34.180,-32.227,-36.133,-40.527,0.000
1743625648.774,-32.715,-30.273,-34.180,-44.922,0.000
1743625648.778,-35.645,-27.832,-35.645,-48.828,0.000
1743625648.782,-42.969,-29.785,-34.180,-43.945,0.000
1743625648.786,-43.457,-25.879,-28.809,-36.133,0.000
1743625648.790,-45.410,-14.648,-29.297,-33.203,0.000
1743625648.794,-55.176,-17.578,-34.180,-35.645,0.000
1743625648.798,-50.293,-27.344,-30.273,-40.039,0.000
1743625648.802,-38.086,-25.879,-31.250,-40.039,0.000
1743625648.806,-37.598,-23.926,-41.504,-45.410,0.000
1743625648.810,-34.668,-23.438,-35.645,-36.621,0.000
1743625648.813,-35.156,-27.832,-25.879,-30.273,0.000
1743625648.817,-34.180,-25.391,-30.762,-35.156,0.000
1743625648.821,-26.367,-17.578,-40.039,-36.621,0.000
1743625648.825,-22.949,-13.672,-36.133,-39.551,0.000
1743625648.829,0.000,-12.695,0.000,-41.016,0.000
1743625648.833,0.000,-14.648,0.000,-34.668,0.000
1743625648.837,0.000,-13.672,0.000,-29.785,0.000
1743625648.841,0.000,-24.414,0.000,-35.645,0.000
1743625648.845,0.000,-32.227,0.000,-34.668,0.000
1743625648.849,0.000,-23.438,0.000,-29.785,0.000
1743625648.853,0.000,-14.648,0.000,-22.461,0.000
1743625648.856,0.000,-19.043,0.000,-18.555,0.000
1743625648.860,0.000,-23.926,0.000,-19.043,0.000
1743625648.864,0.000,-21.484,0.000,-22.461,0.000
1743625648.868,0.000,-22.949,0.000,-21.973,0.000
1743625648.872,0.000,-28.809,0.000,-19.043,0.000
1743625648.876,-24.414,-29.785,-30.762,-28.320,0.000
1743625648.880,-42.969,-29.785,-28.320,-28.320,0.000
1743625648.884,-38.086,-28.320,-21.973,-25.879,0.000
1743625648.888,-35.156,-35.645,-26.367,-31.738,0.000
1743625648.892,-30.273,-33.691,-28.809,-30.273,0.000
1743625648.896,-23.438,-15.137,-29.297,-26.367,0.000
1743625648.899,-30.273,-13.184,-29.297,-27.344,0.000
1743625648.903,-36.133,-23.926,-28.320,-28.320,0.000
1743625648.907,-36.621,-27.344,-37.109,-24.902,0.000
1743625648.911,-31.250,-34.180,-39.062,-27.344,0.000
1743625648.915,-29.785,-37.598,-35.645,-33.203,0.000
1743625648.919,-30.762,-28.809,-38.086,-37.109,0.000
1743625648.923,-25.391,-24.902,-38.574,-32.715,0.000
1743625648.927,-24.414,-29.297,-34.668,-30.273,0.000
1743625648.931,-26.367,-31.250,-37.598,-37.109,0.000
1743625648.935,-24.902,-28.320,-37.598,-34.668,0.000
1743625648.938,-22.461,-28.809,-34.180,-31.250,0.000
1743625648.942,-23.438,-28.320,-36.133,-39.551,0.000
1743625648.946,-31.738,-27.832,-40.527,-40.527,0.000
1743625648.950,-40.527,-33.203,-39.551,-38.086,0.000
1743625648.954,-40.527,-28.320,-38.086,-42.969,0.000
1743625648.958,-41.504,-23.926,-39.062,-41.992,0.000
1743625648.962,-37.109,-20.996,-35.156,-30.762,0.000
1743625648.966,-36.133,-22.949,-31.250,-26.367,0.000
1743625648.970,0.000,-40.039,0.000,-31.738,0.000
1743625648.974,0.000,-41.016,0.000,-34.180,0.000
1743625648.978,0.000,-23.926,0.000,-40.527,0.000
1743625648.981,0.000,-18.555,0.000,-43.457,0.000
1743625648.985,0.000,-21.973,0.000,-36.621,0.000
1743625648.989,0.000,-35.156,0.000,-37.598,0.000
1743625648.993,0.000,-35.645,0.000,-39.062,0.000
1743625648.997,0.000,-24.902,0.000,-36.621,0.000
1743625649.001,0.000,-25.879,0.000,-39.551,0.000
1743625649.005,0.000,-28.320,0.000,-41.504,0.000
1743625649.009,0.000,-23.438,0.000,-36.621,0.000
1743625649.013,0.000,-20.508,0.000,-34.668,0.000
1743625649.017,-35.645,-18.066,-29.297,-33.691,0.000
1743625649.020,-34.180,-16.602,-32.715,-32.227,0.000
1743625649.024,-35.645,-17.090,-31.250,-29.297,0.000
1743625649.028,-27.344,-17.578,-28.809,-28.320,0.000
1743625649.032,-25.391,-16.602,-26.855,-35.156,0.000
1743625649.036,-32.715,-11.230,-27.344,-41.992,0.000
1743625649.040,-38.574,-12.207,-30.762,-46.387,0.000
1743625649.044,-39.062,-13.672,-34.668,-53.711,0.000
1743625649.048,-41.992,-10.254,-36.133,-61.035,0.000
1743625649.052,-39.551,-5.859,-38.086,-62.988,0.000
1743625649.056,-31.738,-1.465,-41.504,-78.125,0.000
1743625649.060,-36.133,0.000,-41.016,-108.887,0.000
1743625649.063,-135.254,6.836,-41.992,-146.973,0.000
1743625649.067,-173.828,8.301,-46.875,-178.223,0.000
1743625649.071,-209.961,0.977,-51.758,-214.355,0.000
1743625649.075,-237.305,0.488,-50.781,-250.000,0.000
1743625649.079,-271.973,5.859,-49.805,-277.832,0.000
1743625649.083,-296.875,16.602,-48.828,-307.129,0.000
1743625649.087,-319.336,14.648,-49.316,-334.961,0.000
1743625649.091,-338.379,-9.277,-50.293,-349.609,0.000
1743625649.095,-351.074,-18.555,-54.199,-359.863,0.000
1743625649.099,-344.727,-3.906,-61.523,-355.957,0.000
1743625649.103,-322.266,-0.977,-62.012,-336.914,0.000
1743625649.106,-301.758,-17.578,-58.594,-321.289,0.000
1743625649.110,-281.250,-27.832,-61.523,-307.129,0.000
1743625649.114,-250.488,-12.695,-63.965,-278.809,0.000
1743625649.118,-222.656,-11.719,-62.988,-243.164,0.000
1743625649.122,-195.801,-17.090,-58.594,-211.914,0.000
1743625649.126,-170.410,-12.695,-63.477,-183.105,0.000
1743625649.130,-148.926,-16.113,-62.500,-151.367,0.000
1743625649.134,-125.488,-31.250,-55.176,-122.070,0.000
1743625649.138,-97.656,-31.738,-51.270,-99.609,0.000
1743625649.142,-81.055,-34.180,-52.734,-79.102,0.000
1743625649.146,-65.918,-47.852,-48.828,-59.082,0.000
1743625649.149,-49.316,-44.922,-45.898,-47.363,0.000
1743625649.153,-30.762,-46.387,-43.457,-32.715,0.000
1743625649.157,-14.648,-48.340,-36.133,-14.160,0.000
1743625649.161,-7.812,-39.062,-29.785,-3.418,0.000
1743625649.165,-7.324,-39.551,-36.133,-3.418,0.000
1743625649.169,-2.441,-39.062,-37.109,0.488,0.000
1743625649.173,5.371,-41.992,-30.762,12.207,0.000
1743625649.177,14.160,-40.527,-27.344,24.414,0.000
1743625649.181,16.113,-38.086,-26.367,24.414,0.000
1743625649.185,16.113,-43.457,-25.879,19.043,0.000
1743625649.188,27.832,-39.551,-23.438,24.902,0.000
1743625649.192,32.715,-44.922,-23.926,28.320,0.000
1743625649.196,35.156,-45.410,-19.531,25.879,0.000
1743625649.200,30.273,-32.715,-21.973,31.738,0.000
1743625649.204,32.715,-39.062,-28.320,31.738,0.000
1743625649.208,31.250,-46.875,-29.297,30.273,0.000
1743625649.212,18.555,-44.922,-26.855,25.391,0.000
1743625649.216,25.879,-38.574,-21.973,22.949,0.000
1743625649.220,25.391,-41.504,-22.949,25.391,0.000
1743625649.224,21.973,-47.852,-21.484,31.250,0.000
1743625649.228,31.738,-42.480,-17.090,34.668,0.000
1743625649.231,33.691,-48.340,-14.160,35.156,0.000
1743625649.235,33.203,-48.828,-13.672,37.109,0.000
1743625649.239,26.855,-46.875,-12.695,33.691,0.000
1743625649.243,25.391,-50.781,-13.184,37.109,0.000
1743625649.247,32.715,-52.734,-17.090,26.367,0.000
1743625649.251,24.902,-61.035,-20.020,17.578,0.000
1743625649.255,13.184,-52.246,-18.555,19.043,0.000
1743625649.259,10.254,-40.527,-20.020,13.672,0.000
1743625649.263,7.324,-39.062,-23.438,10.254,0.000
1743625649.267,4.395,-43.457,-20.996,9.277,0.000
1743625649.271,3.906,-47.852,-13.672,14.160,0.000
1743625649.274,1.465,-45.898,-11.719,16.113,0.000
1743625649.278,-0.488,-37.109,-17.090,11.230,0.000
1743625649.282,0.977,-37.109,-17.578,9.277,0.000
1743625649.286,-2.930,-41.016,-14.160,11.230,0.000
1743625649.290,-3.418,-41.992,-15.625,7.324,0.000
1743625649.294,0.000,-40.527,-18.555,-1.953,0.000
1743625649.298,2.930,-33.203,-17.578,0.977,0.000
1743625649.302,-6.348,-35.156,-17.090,0.977,0.000
1743625649.306,-12.207,-40.039,-20.996,0.000,0.000
1743625649.310,-8.789,-42.480,-20.020,4.883,0.000
1743625649.313,-11.230,-49.316,-23.926,-1.465,0.000
1743625649.317,-15.625,-44.434,-27.832,-1.953,0.000
1743625649.321,-9.277,-33.691,-32.715,-6.348,0.000
1743625649.325,-2.930,-27.832,-30.762,-8.301,0.000
1743625649.329,-13.672,-27.832,-26.855,-8.301,0.000
1743625649.333,-7.812,-34.180,-32.227,-10.254,0.000
1743625649.337,-8.789,-35.156,-30.273,-9.766,0.000
1743625649.341,-20.996,-36.621,-28.809,-15.625,0.000
1743625649.345,-16.602,-35.645,-32.227,-12.695,0.000
1743625649.349,-10.742,-34.668,-30.762,-13.672,0.000
1743625649.353,-15.137,-31.738,-29.297,-15.625,0.000
1743625649.356,-21.973,-29.297,-25.391,-14.160,0.000
1743625649.360,-20.020,-25.879,-29.297,-20.996,0.000
1743625649.364,-17.090,-24.414,-35.156,-20.508,0.000
1743625649.368,-14.160,-27.832,-26.367,-17.578,0.000
1743625649.372,-16.602,-36.621,-21.484,-14.648,0.000
1743625649.376,-32.227,-39.551,-22.949,-16.602,0.000
1743625649.380,-26.855,-38.574,-25.879,-18.555,0.000
1743625649.384,-12.207,-33.691,-29.297,-16.602,0.000
1743625649.388,-13.184,-36.133,-32.227,-20.508,0.000
1743625649.392,-18.066,-37.598,-28.809,-24.414,0.000
1743625649.396,-18.555,-32.227,-27.344,-23.438,0.000
1743625649.399,-17.090,-37.598,-28.320,-17.578,0.000
1743625649.403,-9.277,-28.320,-21.973,-15.625,0.000
1743625649.407,-4.395,-18.066,-24.414,-18.555,0.000
1743625649.411,-8.789,-23.926,-27.344,-19.043,0.000
1743625649.415,-15.625,-39.551,-29.297,-15.625,0.000
1743625649.419,-11.230,-39.062,-31.250,-12.207,0.000
1743625649.423,-16.113,-34.668,-26.367,-12.207,0.000
1743625649.427,-22.949,-35.645,-24.902,-11.230,0.000
1743625649.431,-19.043,-35.156,-26.367,-14.648,0.000
1743625649.435,-19.531,-32.227,-29.785,-19.043,0.000
1743625649.438,0.000,-29.297,-26.367,-15.625,0.000
1743625649.442,0.000,-36.621,-23.926,-18.555,0.000
1743625649.446,0.000,-44.922,-26.367,-21.484,0.000
1743625649.450,0.000,-39.551,-29.297,-23.438,0.000
1743625649.454,0.000,-27.832,-27.344,-25.391,0.000
1743625649.458,0.000,-20.508,-23.926,-24.414,0.000
1743625649.462,0.000,-23.438,-26.367,-17.090,0.000
1743625649.466,0.000,-28.809,-25.391,-10.742,0.000
1743625649.470,0.000,-25.391,-21.484,-14.160,0.000
1743625649.474,0.000,-21.484,-21.973,-20.508,0.000
1743625649.478,0.000,-21.973,-24.902,-19.043,0.000
1743625649.481,0.000,-28.320,-28.320,-18.555,0.000
1743625649.485,-9.766,-30.273,-28.320,-18.066,0.000
1743625649.489,-5.859,-22.461,-22.461,-12.207,0.000
1743625649.493,-10.742,-22.461,-26.855,-14.160,0.000
1743625649.497,-17.090,-30.273,-35.645,-18.555,0.000
1743625649.501,-16.113,-33.691,-33.691,-14.648,0.000
1743625649.505,-13.672,-33.203,-35.156,-14.160,0.000
1743625649.509,-12.695,-40.527,-37.598,-16.113,0.000
1743625649.513,-18.555,-38.086,-37.109,-15.625,0.000
1743625649.517,-18.555,-32.227,-32.715,-15.137,0.000
1743625649.521,-8.301,-36.133,-32.227,-11.230,0.000
1743625649.524,-8.789,-36.621,-27.832,-9.277,0.000
1743625649.528,-6.348,-24.414,-22.461,-6.348,0.000
1743625649.532,-9.277,-28.320,-27.344,-15.625,0.000
1743625649.536,-14.160,-32.227,-26.367,-20.020,0.000
1743625649.540,-15.625,-19.531,-22.461,-18.066,0.000
1743625649.544,-19.531,-14.160,-23.438,-21.973,0.000
1743625649.548,-27.344,-16.113,-30.762,-24.414,0.000
1743625649.552,-27.832,-22.949,-38.086,-25.879,0.000
1743625649.556,-27.832,-31.738,-33.203,-20.996,0.000
1743625649.560,-30.762,-28.809,-27.832,-20.996,0.000
1743625649.563,-32.227,-24.902,-31.250,-23.438,0.000
1743625649.567,-24.414,-27.344,-36.133,-26.855,0.000
1743625649.571,-19.531,-24.414,-36.133,-23.926,0.000
1743625649.575,-18.066,-23.926,-33.203,-22.949,0.000
1743625649.579,-16.602,-30.762,-28.320,-28.320,0.000
1743625649.583,-19.531,-30.273,-28.809,-29.785,0.000
1743625649.587,-16.113,-23.438,-27.832,-30.762,0.000
1743625649.591,-19.531,-26.855,-24.414,-29.785,0.000
1743625649.595,-34.180,-34.180,-24.902,-26.855,0.000
1743625649.599,-38.574,-28.320,-28.320,-31.250,0.000
1743625649.603,-22.949,-24.902,-27.344,-20.020,0.000
1743625649.606,-13.184,-29.297,-24.414,-13.672,0.000
1743625649.610,-13.184,-28.320,-28.809,-21.973,0.000
1743625649.614,-19.043,-24.414,-31.738,-27.344,0.000
1743625649.618,-21.484,-17.090,-30.762,-24.902,0.000
1743625649.622,-22.461,-9.277,-26.367,-20.996,0.000
1743625649.626,-25.391,-14.160,-25.879,-18.555,0.000
1743625649.630,-20.020,-20.996,-27.344,-19.043,0.000
1743625649.634,-23.926,-24.902,-26.367,-21.973,0.000
1743625649.638,-25.391,-30.273,-23.926,-24.414,0.000
1743625649.642,-17.578,-31.738,-18.066,-20.996,0.000
1743625649.646,-19.531,-32.715,-19.531,-22.949,0.000
1743625649.649,-16.113,-34.180,-29.785,-22.949,0.000
1743625649.653,-20.020,-33.203,-32.715,-21.484,0.000
1743625649.657,-23.438,-23.438,-30.273,-22.461,0.000
1743625649.661,-21.973,-11.719,-24.414,-24.902,0.000
1743625649.665,-30.273,-17.090,-26.367,-27.832,0.000
1743625649.669,-29.785,-26.367,-31.250,-26.855,0.000
1743625649.673,-21.973,-26.855,-29.785,-25.391,0.000
1743625649.677,-18.066,-30.762,-33.691,-25.879,0.000
1743625649.681,-16.602,-33.691,-30.273,-17.578,0.000
1743625649.685,-13.184,-32.227,-28.809,-19.043,0.000
1743625649.688,-17.578,-37.598,-30.762,-21.973,0.000
1743625649.692,-24.414,-36.621,-26.855,-14.648,0.000
1743625649.696,-25.879,-30.273,-24.414,-16.113,0.000
1743625649.700,-32.715,-35.645,-21.973,-20.508,0.000
1743625649.704,-31.738,-39.551,-23.438,-22.949,0.000
1743625649.708,-28.320,-27.344,-26.367,-20.996,0.000
1743625649.712,-33.691,-24.414,-21.484,-19.043,0.000
1743625649.716,-37.109,-36.133,-21.484,-27.832,0.000
1743625649.720,-37.109,-36.621,-27.344,-33.203,0.000
1743625649.724,-29.297,-29.297,-23.926,-21.973,0.000
1743625649.728,-17.578,-28.320,-18.066,-14.160,0.000
1743625649.731,-20.020,-24.902,-22.461,-18.555,0.000
1743625649.735,-21.484,-20.996,-17.090,-22.949,0.000
1743625649.739,-21.973,-21.484,-12.207,-23.438,0.000
1743625649.743,-21.973,-29.297,-20.020,-22.949,0.000
1743625649.747,-24.414,-35.156,-24.414,-25.879,0.000
1743625649.751,-29.785,-37.109,-27.832,-28.809,0.000
1743625649.755,-27.344,-37.109,-27.344,-29.785,0.000
1743625649.759,-25.391,-33.203,-27.344,-33.691,0.000
1743625649.763,-34.180,-36.621,-31.738,-41.992,0.000
1743625649.767,-30.273,-39.551,-34.180,-49.316,0.000
1743625649.771,-21.484,-36.621,-29.785,-37.109,0.000
1743625649.774,-18.066,-33.691,-21.973,-27.832,0.000
1743625649.778,-10.254,-31.250,-20.996,-29.297,0.000
1743625649.782,-16.113,-35.645,-22.461,-25.879,0.000
1743625649.786,-21.484,-28.320,-25.391,-26.855,0.000
1743625649.790,-21.484,-22.461,-28.809,-29.785,0.000
1743625649.794,-23.926,-27.344,-28.809,-26.855,0.000
1743625649.798,-27.832,-26.855,-31.250,-31.738,0.000
1743625649.802,-30.762,-25.391,-30.273,-32.227,0.000
1743625649.806,-23.926,-30.762,-31.738,-35.645,0.000
1743625649.810,-27.344,-43.457,-32.227,-38.086,0.000
1743625649.813,-32.715,-41.992,-28.320,-29.297,0.000
1743625649.817,-31.738,-29.785,-20.996,-26.367,0.000
1743625649.821,-25.879,-22.949,-22.949,-27.832,0.000
1743625649.825,-20.508,-30.762,-29.297,-28.809,0.000
1743625649.829,-17.578,-30.762,-28.809,-27.344,0.000
1743625649.833,-17.578,-29.785,-27.344,-20.996,0.000
1743625649.837,-17.090,-37.109,-23.926,-17.578,0.000
1743625649.841,-15.625,-33.691,-22.461,-16.113,0.000
1743625649.845,-18.555,-28.809,-22.461,-13.184,0.000
1743625649.849,-31.250,-32.715,-20.508,-20.996,0.000
1743625649.853,-31.738,-40.039,-22.949,-23.438,0.000
1743625649.856,-27.344,-32.715,-30.762,-17.090,0.000
1743625649.860,-32.715,-28.809,-30.273,-24.414,0.000
1743625649.864,-35.156,-36.133,-26.855,-28.320,0.000
1743625649.868,-36.133,-34.668,-29.297,-22.949,0.000
1743625649.872,-35.156,-23.926,-29.785,-26.367,0.000
1743625649.876,-34.668,-26.367,-33.203,-28.320,0.000
1743625649.880,-35.645,-31.738,-35.156,-29.297,0.000
1743625649.884,-31.250,-23.438,-27.832,-24.902,0.000
1743625649.888,-33.203,-23.926,-24.414,-25.879,0.000
1743625649.892,-37.109,-34.180,-27.832,-24.414,0.000
1743625649.896,-30.762,-34.180,-26.855,-17.090,0.000
1743625649.899,-22.949,-26.367,-26.855,-20.020,0.000
1743625649.903,-27.344,-22.461,-26.367,-31.738,0.000
1743625649.907,-27.344,-21.484,-25.879,-34.180,0.000
1743625649.911,-27.832,-26.367,-30.762,-27.832,0.000
1743625649.915,-25.879,-29.297,-31.738,-31.250,0.000
1743625649.919,-23.438,-33.691,-31.250,-34.668,0.000
1743625649.923,-28.320,-31.738,-33.203,-30.762,0.000
1743625649.927,-25.391,-25.879,-31.738,-31.738,0.000
1743625649.931,-28.809,-23.926,-36.133,-38.574,0.000
1743625649.935,-32.227,-15.137,-33.203,-36.133,0.000
1743625649.938,-33.203,-10.742,-31.738,-43.945,0.000
1743625649.942,-41.504,-14.160,-33.691,-52.734,0.000
1743625649.946,-46.875,-16.602,-30.762,-55.176,0.000
1743625649.950,-61.035,-10.742,-30.273,-63.965,0.000
1743625649.954,0.000,-4.395,-27.832,-81.055,0.000
1743625649.958,0.000,-3.906,-27.344,-100.098,0.000
1743625649.962,0.000,-5.859,-32.227,-115.234,0.000
1743625649.966,0.000,-10.254,-35.645,-130.371,0.000
1743625649.970,0.000,0.000,-40.527,-158.691,0.000
1743625649.974,0.000,10.742,-44.922,-190.430,0.000
1743625649.978,0.000,5.859,-55.176,-219.727,0.000
1743625649.981,0.000,7.812,-67.383,-256.348,0.000
1743625649.985,0.000,19.531,-70.801,-292.480,0.000
1743625649.989,0.000,14.160,-75.684,-318.848,0.000
1743625649.993,0.000,4.395,-75.195,-329.102,0.000
1743625649.997,0.000,10.742,-65.918,-329.102,0.000
1743625650.001,-324.219,5.859,0.000,-334.473,0.000
1743625650.005,-315.430,3.418,0.000,-321.289,0.000
1743625650.009,-293.945,13.672,0.000,-301.758,0.000
1743625650.013,-276.367,12.695,0.000,-288.086,0.000
1743625650.017,-253.906,16.113,0.000,-262.695,0.000
1743625650.021,-221.191,20.020,0.000,-238.770,0.000
1743625650.024,-189.453,7.812,0.000,-209.473,0.000
1743625650.028,-163.574,5.371,0.000,-174.805,0.000
1743625650.032,-142.090,2.930,0.000,-145.996,0.000
1743625650.036,-123.535,-3.418,0.000,-125.000,0.000
1743625650.040,-98.145,-8.301,0.000,-101.074,0.000
1743625650.044,-77.148,-5.859,0.000,-77.637,0.000
1743625650.048,-56.152,-5.859,-48.828,-58.594,0.000
1743625650.052,-28.320,-7.812,-55.664,-42.969,0.000
1743625650.056,-16.113,-19.043,-51.270,-27.344,0.000
1743625650.060,-16.602,-39.551,-44.922,-11.719,0.000
1743625650.064,-11.719,-40.527,-45.410,0.488,0.000
1743625650.067,0.000,-35.645,-41.992,7.812,0.000
1743625650.071,10.742,-40.527,-39.062,14.648,0.000
1743625650.075,17.090,-40.039,-33.203,23.438,0.000
1743625650.079,15.625,-44.434,-32.715,26.367,0.000
1743625650.083,22.949,-38.086,-34.180,29.297,0.000
1743625650.087,33.203,-37.109,-29.297,33.691,0.000
1743625650.091,30.273,-41.016,-26.367,35.645,0.000
1743625650.095,39.062,-33.691,-21.973,45.898,0.000
1743625650.099,29.297,-34.668,-21.484,44.434,0.000
1743625650.103,17.578,-34.668,-22.949,45.898,0.000
1743625650.106,24.414,-37.109,-17.578,50.293,0.000
1743625650.110,23.926,-42.969,-18.066,48.340,0.000
1743625650.114,30.762,-44.434,-17.578,49.316,0.000
1743625650.118,36.133,-38.574,-18.555,49.805,0.000
1743625650.122,28.809,-39.062,-24.902,43.945,0.000
1743625650.126,32.715,-33.691,-23.438,49.805,0.000
1743625650.130,45.410,-27.344,-18.066,48.828,0.000
1743625650.134,50.293,-30.762,-22.949,42.969,0.000
1743625650.138,54.688,-44.922,-30.762,49.316,0.000
1743625650.142,53.711,-52.246,-27.832,54.199,0.000
1743625650.146,47.852,-36.621,-25.391,49.805,0.000
1743625650.149,54.199,-29.785,-21.973,44.434,0.000
1743625650.153,44.922,-32.715,-21.484,34.668,0.000
1743625650.157,36.621,-36.621,-22.949,35.156,0.000
1743625650.161,37.598,-42.480,-24.902,38.574,0.000
1743625650.165,40.039,-37.109,-24.902,39.551,0.000
1743625650.169,38.086,-36.621,-24.902,37.598,0.000
1743625650.173,32.715,-34.668,-24.902,35.645,0.000
1743625650.177,28.320,-34.668,-26.367,25.879,0.000
1743625650.181,23.926,-35.156,-23.438,22.949,0.000
1743625650.185,27.344,-37.109,-14.648,29.297,0.000
1743625650.189,27.832,-41.504,-6.836,28.320,0.000
1743625650.192,25.879,-34.180,-7.324,22.949,0.000
1743625650.196,23.926,-37.598,-10.742,20.020,0.000
1743625650.200,23.926,-44.434,-10.742,18.555,0.000
1743625650.204,19.531,-37.109,-13.184,16.602,0.000
1743625650.208,13.672,-38.574,-11.719,13.184,0.000
1743625650.212,21.484,-39.551,-11.230,20.996,0.000
1743625650.216,17.090,-40.039,-17.090,23.926,0.000
1743625650.220,8.789,-40.039,-18.066,17.090,0.000
1743625650.224,19.531,-31.738,-19.043,10.742,0.000
1743625650.228,20.508,-28.320,-20.508,10.254,0.000
1743625650.231,4.883,-35.645,-16.602,11.230,0.000
1743625650.235,4.883,-39.551,-12.695,7.812,0.000
1743625650.239,14.160,-31.738,-20.996,11.719,0.000
1743625650.243,11.230,-29.785,-26.367,12.207,0.000
1743625650.247,9.277,-40.527,-25.391,17.578,0.000
1743625650.251,14.648,-42.969,-20.020,19.531,0.000
1743625650.255,5.859,-33.203,-15.625,11.719,0.000
1743625650.259,1.953,-27.832,-21.973,10.742,0.000
1743625650.263,2.930,-35.156,-21.973,8.789,0.000
1743625650.267,0.000,-41.016,-21.973,4.395,0.000
1743625650.271,11.719,-38.086,-21.484,4.883,0.000
1743625650.274,5.371,-37.598,-20.508,-2.930,0.000
1743625650.278,-13.184,-31.738,-15.137,-3.906,0.000
1743625650.282,-10.742,-27.832,-12.207,3.418,0.000
1743625650.286,-14.160,-33.203,-10.254,2.930,0.000
1743625650.290,-22.949,-43.945,-18.555,-4.395,0.000
1743625650.294,-13.184,-42.480,-20.508,4.883,0.000
1743625650.298,-6.836,-30.273,-13.184,8.789,0.000
1743625650.302,-7.324,-20.508,-9.277,5.371,0.000
1743625650.306,-10.742,-40.527,-14.160,1.465,0.000
1743625650.310,-11.719,-59.082,-18.555,-11.719,0.000
1743625650.314,-14.648,-52.246,-19.531,-13.184,0.000
1743625650.317,-23.926,-34.180,-18.066,-12.695,0.000
1743625650.321,-21.484,-23.438,-14.160,-17.090,0.000
1743625650.325,-22.461,-27.344,-18.555,-20.020,0.000
1743625650.329,-25.391,-33.203,-21.973,-15.625,0.000
1743625650.333,-16.113,-35.645,-17.578,-13.672,0.000
1743625650.337,-13.672,-28.809,-15.137,-20.020,0.000
1743625650.341,-18.555,-31.738,-16.113,-20.508,0.000
1743625650.345,-11.230,-34.180,-11.719,-16.113,0.000
1743625650.349,-5.859,-28.809,-8.301,-11.719,0.000
1743625650.353,-11.230,-30.762,-19.043,-9.277,0.000
1743625650.356,-15.137,-35.645,-25.879,-8.301,0.000
1743625650.360,-13.672,-49.805,-24.902,-7.812,0.000
1743625650.364,-8.789,-45.410,-25.391,-1.465,0.000
1743625650.368,-9.277,-21.973,-22.461,-7.812,0.000
1743625650.372,-13.672,-22.949,-20.996,-12.207,0.000
1743625650.376,-17.578,-38.574,-20.996,-7.324,0.000
1743625650.380,-18.555,-31.738,-21.973,-7.812,0.000
1743625650.384,-6.836,-22.461,-22.949,-8.301,0.000
1743625650.388,-4.883,-26.855,-23.926,-8.789,0.000
1743625650.392,-14.648,-30.273,-20.996,-7.324,0.000
1743625650.396,-15.625,-37.598,-18.555,-4.883,0.000
1743625650.399,-18.066,-41.504,-24.902,-8.301,0.000
1743625650.403,-16.113,-41.992,-22.949,-7.812,0.000
1743625650.407,-21.973,-36.621,-20.508,-16.113,0.000
1743625650.411,-29.297,-32.227,-24.414,-20.020,0.000
1743625650.415,-23.926,-35.156,-22.949,-12.695,0.000
1743625650.419,-26.367,-33.203,-23.438,-11.719,0.000
1743625650.423,-32.715,-29.297,-28.809,-14.160,0.000
1743625650.427,-29.785,-30.762,-30.762,-21.484,0.000
1743625650.431,-21.973,-30.273,-29.785,-24.902,0.000
1743625650.435,-21.973,-30.273,-30.273,-21.973,0.000
1743625650.439,-22.461,-32.227,-33.203,-22.461,0.000
1743625650.442,-17.090,-27.832,-34.180,-24.902,0.000
1743625650.446,-21.973,-38.574,-35.156,-26.367,0.000
1743625650.450,-27.832,-46.387,-27.832,-18.066,0.000
1743625650.454,-16.602,-30.273,-26.367,-12.695,0.000
1743625650.458,-12.207,-27.344,-26.855,-11.719,0.000
1743625650.462,-20.020,-28.320,-26.367,-12.207,0.000
1743625650.466,-20.996,-30.762,-30.762,-14.160,0.000
1743625650.470,-24.902,-38.574,-30.273,-16.113,0.000
1743625650.474,-24.902,-33.203,-33.203,-15.137,0.000
1743625650.478,-20.020,-23.926,-33.691,-5.859,0.000
1743625650.481,-19.043,-17.578,-27.344,-5.859,0.000
1743625650.485,-21.973,-18.555,-27.344,-14.160,0.000
1743625650.489,-15.625,-17.090,-23.438,-15.137,0.000
1743625650.493,-20.020,-19.531,-24.414,-20.020,0.000
1743625650.497,-23.926,-28.320,-33.203,-25.879,0.000
1743625650.501,-25.879,-41.504,-38.086,-32.227,0.000
1743625650.505,-31.738,-47.363,-38.574,-38.086,0.000
1743625650.509,-28.320,-35.645,-39.551,-40.527,0.000
1743625650.513,-30.273,-27.832,-36.133,-40.527,0.000
1743625650.517,-30.273,-23.926,-33.203,-36.621,0.000
1743625650.521,-34.180,-27.344,-34.180,-33.203,0.000
1743625650.524,-34.180,-35.156,-36.621,-40.039,0.000
1743625650.528,-31.738,-24.414,-34.668,-33.203,0.000
1743625650.532,-31.250,-24.414,-29.297,-20.996,0.000
1743625650.536,-33.691,-28.809,-25.879,-27.344,0.000
1743625650.540,-30.273,-25.391,-28.809,-31.738,0.000
1743625650.544,-29.785,-36.621,-35.156,-34.668,0.000
1743625650.548,-27.344,-41.504,-34.668,-35.156,0.000
1743625650.552,-18.066,-33.691,-32.715,-32.227,0.000
1743625650.556,-22.949,-31.250,-30.273,-34.668,0.000
1743625650.560,-29.785,-30.273,-26.855,-32.715,0.000
1743625650.564,-23.438,-37.109,-31.250,-36.621,0.000
1743625650.567,-24.414,-31.250,-31.250,-37.109,0.000
1743625650.571,-24.414,-25.879,-33.691,-30.762,0.000
1743625650.575,-17.090,-29.785,-30.762,-23.926,0.000
1743625650.579,-21.973,-31.738,-26.367,-24.902,0.000
1743625650.583,-25.391,-24.414,-29.785,-32.227,0.000
1743625650.587,-28.809,-22.461,-30.762,-34.668,0.000
1743625650.591,-28.809,-27.344,-28.320,-34.180,0.000
1743625650.595,-19.043,-24.414,-27.344,-35.156,0.000
1743625650.599,-19.043,-20.020,-25.879,-29.297,0.000
1743625650.603,-17.578,-23.438,-28.320,-29.785,0.000
1743625650.606,-18.555,-33.203,-32.227,-30.762,0.000
1743625650.610,-28.809,-33.203,-27.832,-26.855,0.000
1743625650.614,-39.551,-33.691,-26.367,-30.762,0.000
1743625650.618,-37.109,-36.133,-24.902,-29.785,0.000
1743625650.622,-27.344,-29.297,-27.832,-26.367,0.000
1743625650.626,-29.297,-27.344,-30.273,-24.414,0.000
1743625650.630,-42.969,-36.133,-32.227,-29.785,0.000
1743625650.634,-50.781,-39.062,-29.785,-36.621,0.000
1743625650.638,-46.875,-30.762,-25.879,-35.156,0.000
1743625650.642,-38.574,-27.832,-26.367,-33.691,0.000
1743625650.646,-36.621,-35.156,-26.367,-36.133,0.000
1743625650.649,-40.527,-34.668,-26.855,-41.504,0.000
1743625650.653,-32.715,-23.438,-24.414,-38.086,0.000
1743625650.657,-23.926,-23.438,-19.531,-26.855,0.000
1743625650.661,-20.996,-22.949,-19.043,-17.578,0.000
1743625650.665,-28.320,-23.926,-24.902,-29.785,0.000
1743625650.669,-29.297,-31.738,-27.344,-38.574,0.000
1743625650.673,-27.344,-30.762,-29.785,-35.645,0.000
1743625650.677,-27.344,-24.414,-30.273,-31.250,0.000
1743625650.681,-23.926,-21.484,-27.344,-29.785,0.000
1743625650.685,-23.438,-24.414,-26.855,-34.668,0.000
1743625650.689,-26.855,-33.203,-34.180,-31.738,0.000
1743625650.692,-28.809,-35.156,-38.086,-27.832,0.000
1743625650.696,-30.273,-27.344,-32.227,-22.949,0.000
1743625650.700,-26.367,-33.203,-27.832,-19.043,0.000
1743625650.704,-26.367,-38.086,-28.809,-17.578,0.000
1743625650.708,-27.344,-27.832,-32.715,-22.461,0.000
1743625650.712,-30.273,-29.785,-27.344,-26.367,0.000
1743625650.716,-30.273,-37.109,-25.879,-20.020,0.000
1743625650.720,-30.762,-31.250,-27.832,-17.578,0.000
1743625650.724,-30.762,-24.902,-26.367,-25.391,0.000
1743625650.728,-32.715,-25.391,-32.227,-43.457,0.000
1743625650.731,-44.434,-24.902,-31.250,-51.270,0.000
1743625650.735,-49.805,-18.555,-31.738,-53.711,0.000
1743625650.739,-64.453,-13.184,-35.645,-69.336,0.000
1743625650.743,-77.148,-5.859,-30.273,-84.473,0.000
1743625650.747,-89.355,-3.906,-29.785,-101.562,0.000
1743625650.751,-111.328,-7.812,-37.598,-126.953,0.000
1743625650.755,-144.043,-9.766,-46.387,-158.203,0.000
1743625650.759,-172.852,-3.906,-51.270,-178.711,0.000
1743625650.763,-192.871,4.883,-57.617,-206.543,0.000
1743625650.767,-222.656,9.766,-65.430,-236.816,0.000
1743625650.771,-248.535,12.695,-65.430,-255.859,0.000
1743625650.774,-263.184,16.602,-63.965,-280.762,0.000
1743625650.778,-272.461,9.766,-64.453,-294.922,0.000
1743625650.782,-275.391,6.836,-59.570,-296.387,0.000
1743625650.786,-271.484,2.930,-56.152,-290.527,0.000
1743625650.790,-262.695,-13.184,-56.641,-286.621,0.000
1743625650.794,-252.930,-9.277,-60.059,-275.391,0.000
1743625650.798,-234.375,6.836,-68.359,-261.230,0.000
1743625650.802,-210.449,7.324,-69.336,-237.305,0.000
1743625650.806,-193.848,9.766,-67.383,-211.914,0.000
1743625650.810,-168.945,10.254,-70.312,-187.988,0.000
1743625650.814,-147.461,3.418,-66.406,-149.902,0.000
1743625650.817,-122.559,-11.719,-54.199,-119.141,0.000
1743625650.821,-96.191,-25.879,-52.246,-100.098,0.000
1743625650.825,-77.637,-20.020,-52.734,-80.566,0.000
1743625650.829,-59.570,-34.180,-56.641,-64.941,0.000
1743625650.833,-42.480,-45.898,-59.082,-46.387,0.000
1743625650.837,-31.250,-35.156,-51.758,-30.273,0.000
1743625650.841,-12.207,-34.668,-44.434,-21.484,0.000
1743625650.845,1.953,-39.062,-42.969,-10.254,0.000
1743625650.849,2.441,-29.785,-40.039,1.953,0.000
1743625650.853,7.324,-31.250,-35.156,8.789,0.000
1743625650.856,22.461,-34.668,-33.691,21.973,0.000
1743625650.860,38.086,-34.668,-33.203,31.250,0.000
1743625650.864,32.227,-37.598,-32.715,34.180,0.000
1743625650.868,32.715,-43.457,-29.785,37.598,0.000
1743625650.872,35.156,-53.711,-30.762,35.645,0.000
1743625650.876,34.180,-38.574,-25.879,33.691,0.000
1743625650.880,38.086,-30.273,-22.949,41.992,0.000
1743625650.884,39.062,-40.039,-23.926,49.805,0.000
1743625650.888,42.969,-33.691,-17.578,54.199,0.000
1743625650.892,39.551,-34.668,-17.578,49.316,0.000
1743625650.896,34.668,-40.527,-17.578,43.457,0.000
1743625650.899,29.785,-38.574,-20.020,42.480,0.000
1743625650.903,33.691,-36.621,-24.902,39.062,0.000
1743625650.907,36.621,-27.832,-22.949,42.480,0.000
1743625650.911,26.855,-23.926,-21.484,35.156,0.000
1743625650.915,25.391,-33.691,-19.043,31.738,0.000
1743625650.919,22.461,-41.992,-19.043,35.156,0.000
1743625650.923,22.949,-40.527,-20.020,33.203,0.000
1743625650.927,27.344,-37.598,-19.043,34.668,0.000
1743625650.931,27.832,-39.551,-19.531,29.785,0.000
1743625650.935,28.320,-46.387,-21.484,27.344,0.000
1743625650.939,33.203,-46.387,-18.555,33.691,0.000
1743625650.942,29.785,-40.039,-17.578,34.668,0.000
1743625650.946,25.391,-37.109,-23.926,31.250,0.000
1743625650.950,29.297,-31.250,-24.414,32.227,0.000
1743625650.954,29.785,-30.762,-19.043,30.273,0.000
1743625650.958,24.414,-36.621,-12.695,33.203,0.000
1743625650.962,21.484,-41.504,-20.020,28.320,0.000
1743625650.966,15.137,-41.992,-29.297,19.531,0.000
1743625650.970,11.230,-43.457,-25.391,16.602,0.000
1743625650.974,17.090,-46.387,-20.996,12.207,0.000
1743625650.978,21.973,-46.875,-23.926,14.648,0.000
1743625650.981,18.555,-46.387,-25.391,13.184,0.000
1743625650.985,17.090,-36.133,-24.414,12.207,0.000
1743625650.989,15.137,-32.715,-20.996,16.602,0.000
1743625650.993,6.348,-34.668,-23.926,16.113,0.000
1743625650.997,9.766,-34.668,-27.832,12.695,0.000
1743625651.001,8.301,-38.086,-28.320,8.789,0.000
1743625651.005,1.953,-39.062,-27.344,10.254,0.000
1743625651.009,11.719,-41.504,-29.785,7.324,0.000
1743625651.013,21.484,-39.551,-26.367,16.602,0.000
1743625651.017,17.090,-37.109,-22.461,14.160,0.000
1743625651.021,17.578,-38.574,-20.996,9.766,0.000
1743625651.024,7.324,-41.504,-14.648,12.695,0.000
1743625651.028,-1.465,-48.828,-12.207,6.348,0.000
1743625651.032,6.836,-40.527,-12.695,4.883,0.000
1743625651.036,0.000,-29.785,-19.043,6.836,0.000
1743625651.040,-7.324,-33.691,-25.391,0.488,0.000
1743625651.044,3.906,-32.715,-25.391,1.465,0.000
1743625651.048,5.859,-34.180,-23.926,2.930,0.000
1743625651.052,-4.395,-37.109,-22.949,4.395,0.000
1743625651.056,-6.836,-37.598,-22.461,9.766,0.000
1743625651.060,-2.441,-41.016,-25.879,7.324,0.000
1743625651.064,0.977,-45.410,-25.879,2.441,0.000
1743625651.067,1.953,-44.922,-20.020,0.000,0.000
1743625651.071,-1.465,-40.527,-19.531,-0.977,0.000
1743625651.075,-4.883,-43.457,-22.461,-4.395,0.000
1743625651.079,-10.254,-36.133,-20.508,-5.371,0.000
1743625651.083,-16.602,-27.832,-26.855,-6.348,0.000
1743625651.087,-27.832,-37.598,-35.645,-17.578,0.000
1743625651.091,-26.855,-41.504,-34.180,-13.184,0.000
1743625651.095,-15.625,-37.598,-27.344,-1.465,0.000
1743625651.099,-11.719,-25.879,-18.555,1.465,0.000
1743625651.103,-1.465,-16.602,-12.207,7.812,0.000
1743625651.107,-2.441,-19.531,-20.020,5.371,0.000
1743625651.110,-12.207,-22.461,-28.809,-9.277,0.000
1743625651.114,-14.160,-21.484,-32.227,-26.855,0.000
1743625651.118,-8.301,-30.273,-38.086,-30.762,0.000
1743625651.122,2.930,-43.457,-40.527,-24.414,0.000
1743625651.126,-11.230,-37.109,-36.133,-20.996,0.000
1743625651.130,-16.113,-25.391,-30.273,-22.949,0.000
1743625651.134,-4.395,-21.484,-25.879,-20.996,0.000
1743625651.138,-2.930,-14.160,-22.949,-12.695,0.000
1743625651.142,-8.301,-24.902,-21.484,-13.184,0.000
1743625651.146,-14.648,-35.156,-29.297,-28.809,0.000
1743625651.149,-17.090,-27.832,-37.598,-31.250,0.000
1743625651.153,-22.949,-32.715,-33.691,-23.926,0.000
1743625651.157,-26.367,-38.574,-31.250,-26.855,0.000
1743625651.161,-14.648,-35.156,-30.762,-27.832,0.000
1743625651.165,-11.230,-31.738,-29.785,-23.438,0.000
1743625651.169,-16.113,-34.668,-24.902,-19.043,0.000
1743625651.173,-15.137,-46.387,-21.484,-13.184,0.000
1743625651.177,-20.996,-41.992,-21.973,-16.602,0.000
1743625651.181,-23.438,-34.668,-24.902,-23.926,0.000
1743625651.185,-19.043,-36.621,-29.297,-19.043,0.000
1743625651.189,-18.066,-36.133,-28.320,-21.973,0.000
1743625651.192,-15.625,-30.273,-23.926,-20.508,0.000
1743625651.196,-14.160,-30.762,-23.438,-11.230,0.000
1743625651.200,-13.184,-39.062,-22.949,-12.207,0.000
1743625651.204,-15.137,-44.434,-27.344,-16.602,0.000
1743625651.208,-20.508,-41.504,-28.320,-23.926,0.000
1743625651.212,-18.555,-38.086,-22.461,-20.996,0.000
1743625651.216,-10.742,-34.180,-20.996,-14.160,0.000
1743625651.220,0.000,-35.645,-28.809,-17.090,0.000
1743625651.224,0.000,-33.203,-34.180,-25.879,0.000
1743625651.228,0.000,-32.227,-31.738,-22.461,0.000
1743625651.232,0.000,-40.039,-30.762,-21.973,0.000
1743625651.235,0.000,-31.250,-27.344,-20.508,0.000
1743625651.239,0.000,-27.832,-26.855,-15.137,0.000
1743625651.243,0.000,-32.227,-29.785,-21.973,0.000
1743625651.247,0.000,-26.855,-27.832,-16.113,0.000
1743625651.251,0.000,-31.738,-28.320,-12.695,0.000
1743625651.255,0.000,-32.715,-25.879,-17.578,0.000
1743625651.259,0.000,-30.762,-25.879,-15.137,0.000
1743625651.263,0.000,-27.344,-28.320,-13.184,0.000
1743625651.267,-20.020,-21.973,-32.227,-19.043,0.000
1743625651.271,-19.043,-19.531,-28.809,-25.391,0.000
1743625651.274,-20.020,-29.297,-28.809,-21.973,0.000
1743625651.278,-24.902,-36.133,-35.645,-24.414,0.000
1743625651.282,-23.926,-33.203,-32.715,-22.949,0.000
1743625651.286,-20.508,-32.227,-26.855,-18.066,0.000
1743625651.290,-25.391,-40.039,-25.391,-24.414,0.000
1743625651.294,-35.645,-42.480,-29.785,-29.785,0.000
1743625651.298,-29.785,-25.391,-33.203,-24.902,0.000
1743625651.302,-19.531,-19.043,-31.250,-22.949,0.000
1743625651.306,-20.996,-24.414,-28.809,-22.461,0.000
1743625651.310,-18.555,-21.973,-29.297,-22.949,0.000
1743625651.314,0.000,-22.949,-29.297,-21.973,0.000
1743625651.317,0.000,-27.344,-30.762,-22.949,0.000
1743625651.321,0.000,-20.508,-34.668,-19.531,0.000
1743625651.325,0.000,-24.414,-34.180,-14.160,0.000
1743625651.329,0.000,-37.598,-32.227,-18.555,0.000
1743625651.333,0.000,-29.297,-24.902,-20.508,0.000
1743625651.337,0.000,-23.438,-29.785,-25.879,0.000
1743625651.341,0.000,-37.109,-31.250,-24.902,0.000
1743625651.345,0.000,-43.457,-25.391,-24.414,0.000
1743625651.349,0.000,-38.086,-28.320,-28.809,0.000
1743625651.353,0.000,-40.527,-21.973,-19.531,0.000
1743625651.357,0.000,-31.250,-21.484,-17.090,0.000
1743625651.360,-37.598,-20.996,-29.297,-18.555,0.000
1743625651.364,-26.367,-22.949,-29.297,-18.066,0.000
1743625651.368,-29.297,-20.020,-24.902,-15.137,0.000
1743625651.372,-34.180,-25.879,-26.367,-14.160,0.000
1743625651.376,-33.203,-19.531,-20.020,-10.742,0.000
1743625651.380,-32.715,-15.625,-19.043,-17.578,0.000
1743625651.384,-35.156,-20.508,-25.391,-26.855,0.000
1743625651.388,-41.504,-29.785,-27.344,-32.227,0.000
1743625651.392,-40.039,-41.016,-28.320,-40.039,0.000
1743625651.396,-36.621,-33.203,-22.949,-36.621,0.000
1743625651.399,-38.574,-23.438,-22.461,-35.156,0.000
1743625651.403,-36.621,-29.297,-28.809,-36.621,0.000
1743625651.407,0.000,-38.086,-33.203,-30.273,0.000
1743625651.411,0.000,-41.504,-35.156,-34.668,0.000
1743625651.415,0.000,-30.273,-35.156,-36.133,0.000
1743625651.419,0.000,-27.832,-30.762,-26.855,0.000
1743625651.423,0.000,-21.973,-24.902,-20.996,0.000
1743625651.427,0.000,-18.555,-29.297,-27.344,0.000
1743625651.431,0.000,-28.809,-31.250,-30.273,0.000
1743625651.435,0.000,-25.879,-25.391,-23.438,0.000
1743625651.439,0.000,-28.320,-24.902,-22.461,0.000
1743625651.442,0.000,-34.180,-23.438,-24.414,0.000
1743625651.446,0.000,-33.203,-23.926,-26.367,0.000
1743625651.450,0.000,-30.273,-28.809,-29.785,0.000
1743625651.454,-32.715,-34.668,-28.809,-31.738,0.000
1743625651.458,-30.762,-41.992,-24.902,-33.203,0.000
1743625651.462,-26.367,-32.227,-24.902,-32.715,0.000
1743625651.466,-20.996,-26.367,-22.949,-23.926,0.000
1743625651.470,-15.625,-32.715,-29.297,-21.484,0.000
1743625651.474,-21.484,-36.621,-34.668,-27.832,0.000
1743625651.478,-28.320,-41.016,-34.180,-33.203,0.000
1743625651.482,-27.344,-35.645,-33.691,-33.203,0.000
1743625651.485,-26.855,-36.621,-29.785,-27.832,0.000
1743625651.489,-30.273,-40.527,-29.297,-28.809,0.000
1743625651.493,-34.668,-37.598,-30.273,-31.250,0.000
1743625651.497,-40.527,-32.715,-30.762,-32.227,0.000
1743625651.501,-31.250,-30.762,-27.344,-30.273,0.000
1743625651.505,-26.855,-41.016,-25.879,-31.738,0.000
1743625651.509,-20.020,-36.621,-26.855,-28.809,0.000
1743625651.513,-21.973,-23.926,-27.344,-19.043,0.000
1743625651.517,-27.344,-31.250,-34.180,-23.438,0.000
1743625651.521,-20.020,-29.297,-30.762,-26.855,0.000
1743625651.524,-15.137,-21.484,-31.738,-24.414,0.000
1743625651.528,-21.484,-26.855,-44.434,-34.180,0.000
1743625651.532,-28.809,-29.785,-38.574,-35.645,0.000
1743625651.536,-24.902,-25.391,-27.344,-29.297,0.000
1743625651.540,-28.809,-27.832,-20.996,-30.762,0.000
1743625651.544,-31.738,-31.250,-21.484,-31.738,0.000
1743625651.548,-34.180,-29.785,-26.367,-26.855,0.000
1743625651.552,-37.598,-28.320,-27.832,-30.273,0.000
1743625651.556,-37.598,-29.785,-26.367,-36.133,0.000
1743625651.560,-40.039,-34.180,-27.832,-38.086,0.000
1743625651.564,-30.273,-28.809,-24.902,-32.227,0.000
1743625651.567,-29.297,-26.855,-20.020,-27.832,0.000
1743625651.571,-38.086,-28.320,-27.344,-43.945,0.000
1743625651.575,-57.129,-26.367,-29.785,-55.176,0.000
1743625651.579,-70.312,-22.461,-31.738,-58.594,0.000
1743625651.583,-55.664,-10.254,-37.598,-66.895,0.000
1743625651.587,-55.664,-2.441,-42.480,-85.449,0.000
1743625651.591,-82.520,2.441,-53.223,-108.887,0.000
1743625651.595,-100.586,13.184,-60.547,-130.859,0.000
1743625651.599,-122.559,20.996,-71.777,-157.227,0.000
1743625651.603,-139.160,27.832,-79.102,-178.711,0.000
1743625651.607,-155.273,37.109,-88.867,-197.266,0.000
1743625651.610,-174.316,46.387,-100.586,-220.703,0.000
1743625651.614,-186.523,46.387,-102.051,-238.770,0.000
1743625651.618,-197.266,45.410,-105.469,-251.465,0.000
1743625651.622,-202.148,51.270,-104.980,-245.605,0.000
1743625651.626,-202.637,46.875,-108.398,-240.723,0.000
1743625651.630,-190.918,37.598,-113.281,-241.699,0.000
1743625651.634,-182.129,46.387,-110.840,-230.957,0.000
1743625651.638,-164.062,43.457,-105.957,-212.402,0.000
1743625651.642,0.000,43.945,-100.098,-196.289,0.000
1743625651.646,0.000,50.781,-100.098,-181.152,0.000
1743625651.649,0.000,49.316,-103.027,-158.691,0.000
1743625651.653,0.000,53.223,-100.098,-130.859,0.000
1743625651.657,0.000,31.738,-100.586,-118.652,0.000
1743625651.661,0.000,6.836,-93.262,-110.840,0.000
1743625651.665,0.000,9.277,-77.148,-80.566,0.000
1743625651.669,0.000,-4.883,-74.707,-56.641,0.000
1743625651.673,0.000,-0.977,-73.730,-40.527,0.000
1743625651.677,0.000,9.766,-70.801,-28.809,0.000
1743625651.681,0.000,-4.883,-65.918,-20.996,0.000
1743625651.685,0.000,-16.602,-54.688,-9.277,0.000
1743625651.689,-140.137,-22.949,-51.270,-0.977,0.000
1743625651.692,-122.559,-16.602,-48.828,-1.465,0.000
1743625651.696,-103.516,-15.625,-42.480,6.836,0.000
1743625651.700,-85.938,-23.438,-39.551,14.648,0.000
1743625651.704,-75.684,-29.297,-35.156,14.648,0.000
1743625651.708,-64.941,-20.508,-31.250,17.090,0.000
1743625651.712,-41.992,-23.926,-29.785,23.926,0.000
1743625651.716,-32.227,-36.621,-23.926,31.250,0.000
1743625651.720,-20.508,-38.086,-20.996,37.598,0.000
1743625651.724,-5.371,-38.086,-20.996,40.527,0.000
1743625651.728,-3.418,-46.387,-20.508,38.574,0.000
1743625651.732,6.348,-41.016,-14.160,42.480,0.000
1743625651.735,40.039,-32.715,-8.301,46.875,0.000
1743625651.739,44.922,-44.434,-10.254,41.992,0.000
1743625651.743,35.645,-45.898,-13.672,37.598,0.000
1743625651.747,35.156,-44.922,-10.742,41.992,0.000
1743625651.751,39.062,-35.645,-6.836,42.969,0.000
1743625651.755,30.762,-29.785,-6.836,40.527,0.000
1743625651.759,30.273,-53.711,-12.695,38.086,0.000
1743625651.763,27.344,-54.688,-14.160,41.504,0.000
1743625651.767,20.508,-44.922,-13.184,41.504,0.000
1743625651.771,21.973,-53.223,-17.090,38.086,0.000
1743625651.774,23.926,-53.223,-15.137,43.457,0.000
1743625651.778,27.832,-42.480,-15.625,44.434,0.000
1743625651.782,37.109,-37.598,-14.160,41.504,0.000
1743625651.786,36.133,-40.527,-11.230,41.992,0.000
1743625651.790,31.738,-41.504,-12.695,37.598,0.000
1743625651.794,37.109,-41.504,-14.648,32.715,0.000
1743625651.798,36.621,-39.551,-12.695,33.691,0.000
1743625651.802,25.391,-42.480,-12.207,30.273,0.000
1743625651.806,15.137,-59.570,-18.066,24.414,0.000
1743625651.810,9.277,-51.758,-16.602,22.461,0.000
1743625651.814,10.742,-37.598,-16.602,22.461,0.000
1743625651.817,9.277,-37.109,-13.672,21.973,0.000
1743625651.821,4.395,-36.133,-9.766,22.949,0.000
1743625651.825,5.371,-40.039,-14.648,20.996,0.000
1743625651.829,5.371,-37.598,0.000,22.461,0.000
1743625651.833,9.766,-33.203,0.000,21.484,0.000
1743625651.837,12.207,-33.691,0.000,20.020,0.000
1743625651.841,10.742,-34.668,0.000,18.066,0.000
1743625651.845,6.836,-39.551,0.000,12.695,0.000
1743625651.849,2.930,-37.598,0.000,11.719,0.000
1743625651.853,-1.465,-37.598,0.000,10.742,0.000
1743625651.857,-6.348,-50.293,0.000,2.930,0.000
1743625651.860,-0.488,-39.551,0.000,3.418,0.000
1743625651.864,-3.418,-29.297,0.000,2.441,0.000
1743625651.868,-7.812,-31.250,0.000,0.977,0.000
1743625651.872,-12.207,-27.832,0.000,0.488,0.000
1743625651.876,-14.648,-24.902,-12.695,-1.953,0.000
1743625651.880,-16.113,-28.809,-18.555,-11.230,0.000
1743625651.884,-28.320,-32.227,-24.414,-21.484,0.000
1743625651.888,-34.668,-26.855,-21.973,-23.926,0.000
1743625651.892,-36.621,-22.461,-23.926,-33.691,0.000
1743625651.896,-50.293,-24.902,-30.762,-50.781,0.000
1743625651.899,-75.195,-26.855,-43.945,-81.543,0.000
1743625651.903,-76.660,-7.812,-53.223,-101.562,0.000
1743625651.907,-75.684,4.395,-48.828,-103.027,0.000
1743625651.911,-117.676,-1.953,-50.293,-137.207,0.000
1743625651.915,-163.086,5.859,-58.105,-177.734,0.000
1743625651.919,-184.082,19.043,-60.547,-194.824,0.000
1743625651.923,-218.262,16.602,-59.082,-225.586,0.000
1743625651.927,-245.605,5.371,-54.199,-248.535,0.000
1743625651.931,-256.348,-7.324,-47.363,-260.254,0.000
1743625651.935,-276.367,-16.113,-42.969,-282.227,0.000
1743625651.939,-288.086,-17.578,-37.598,-289.062,0.000
1743625651.942,-297.852,-19.043,-27.344,-284.668,0.000
1743625651.946,-314.453,-27.832,-24.414,-281.738,0.000
1743625651.950,-322.266,-38.574,-25.391,-287.598,0.000
1743625651.954,-317.871,-36.133,-21.973,-288.086,0.000
1743625651.958,-304.688,-40.039,-18.555,-276.367,0.000
1743625651.962,-295.898,-51.758,-13.672,-258.789,0.000
1743625651.966,-266.602,-53.711,-12.207,-238.281,0.000
1743625651.970,-243.164,-53.223,-16.602,-218.262,0.000
1743625651.974,-228.027,-58.105,-12.207,-190.918,0.000
1743625651.978,-200.195,-62.988,-6.836,-163.574,0.000
1743625651.982,-172.852,-65.918,-14.648,-139.648,0.000
1743625651.985,-154.297,-74.219,-22.461,-121.582,0.000
1743625651.989,-138.672,-81.055,-22.461,-101.562,0.000
1743625651.993,-114.258,-70.801,-18.066,-78.125,0.000
1743625651.997,-85.938,-62.988,-17.090,-48.340,0.000
1743625652.001,-67.383,-75.195,-26.367,-28.320,0.000
1743625652.005,-45.410,-74.707,-21.484,-8.301,0.000
1743625652.009,-27.832,-68.359,-22.461,8.301,0.000
1743625652.013,-15.625,-73.242,-25.391,13.184,0.000
1743625652.017,3.906,-70.312,-18.555,27.344,0.000
1743625652.021,19.043,-71.777,-23.438,40.039,0.000
1743625652.024,31.250,-72.266,-28.320,40.527,0.000
1743625652.028,35.156,-66.895,-23.438,49.805,0.000
1743625652.032,40.039,-59.570,-18.066,62.988,0.000
1743625652.036,44.434,-50.781,-17.090,63.965,0.000
1743625652.040,43.945,-49.316,-15.137,71.777,0.000
1743625652.044,42.969,-57.617,-14.648,72.266,0.000
1743625652.048,49.316,-55.664,-11.230,66.895,0.000
1743625652.052,61.035,-47.852,-5.859,78.125,0.000
1743625652.056,64.453,-49.316,-8.301,82.031,0.000
1743625652.060,60.059,-56.152,-9.766,77.637,0.000
1743625652.064,62.012,-56.641,-4.883,83.496,0.000
1743625652.067,63.965,-48.828,-3.418,87.402,0.000
1743625652.071,60.059,-50.293,-1.953,79.102,0.000
1743625652.075,65.918,-47.852,-0.977,67.383,0.000
1743625652.079,74.707,-41.504,-3.906,67.383,0.000
1743625652.083,58.105,-51.270,-4.883,65.430,0.000
1743625652.087,50.781,-61.523,-4.883,56.152,0.000
1743625652.091,56.152,-56.152,-6.348,59.082,0.000
1743625652.095,51.270,-53.711,-9.277,56.152,0.000
1743625652.099,43.457,-64.941,-12.695,50.293,0.000
1743625652.103,40.527,-52.246,-10.254,52.246,0.000
1743625652.107,35.645,-35.645,-7.324,54.199,0.000
1743625652.110,30.762,-37.598,-11.230,0.000,0.000
1743625652.114,26.855,-41.992,-10.742,0.000,0.000
1743625652.118,24.902,-45.898,-11.230,0.000,0.000
1743625652.122,27.832,-44.922,-13.672,0.000,0.000
1743625652.126,30.273,-45.410,-17.090,0.000,0.000
1743625652.130,30.762,-42.969,-14.648,0.000,0.000
1743625652.134,20.508,-41.504,-11.230,0.000,0.000
1743625652.138,10.742,-49.316,-8.301,0.000,0.000
1743625652.142,12.207,-42.969,-6.836,0.000,0.000
1743625652.146,20.996,-35.156,-15.137,0.000,0.000
1743625652.149,21.973,-43.457,-19.043,0.000,0.000
1743625652.153,14.648,-42.480,-19.043,0.000,0.000
1743625652.157,10.254,-34.668,-21.484,24.414,0.000
1743625652.161,9.766,-34.180,-17.578,23.438,0.000
1743625652.165,9.277,-36.133,-16.602,22.949,0.000
1743625652.169,9.277,-41.016,-20.508,20.996,0.000
1743625652.173,14.648,-49.316,-21.484,18.555,0.000
1743625652.177,15.625,-47.363,-20.020,15.137,0.000
1743625652.181,16.113,-34.668,-19.531,14.648,0.000
1743625652.185,20.020,-46.387,-17.578,13.184,0.000
1743625652.189,12.207,-45.410,-16.602,8.789,0.000
1743625652.192,5.859,-29.297,-22.461,-0.488,0.000
1743625652.196,-0.977,-32.715,-26.367,-7.324,0.000
1743625652.200,-1.465,-42.480,-28.320,-4.395,0.000
1743625652.200,-1.465,-42.480,-28.320,-4.395,0.000
1743625652.204,0.488,-49.805,-29.297,-7.812,0.000
1743625652.208,-7.812,-43.457,-28.809,-16.602,0.000
1743625652.212,-12.695,-35.645,-31.738,-18.066,0.000
1743625652.216,-7.812,-39.062,-28.809,-13.184,0.000
1743625652.220,-8.301,-41.016,-24.902,-7.324,0.000
1743625652.224,-6.836,-33.203,-23.926,-10.742,0.000
1743625652.228,-5.859,-34.180,-27.832,-12.695,0.000
1743625652.232,-8.789,-44.434,-28.320,-14.648,0.000
1743625652.235,0.977,-47.852,-24.902,-9.277,0.000
1743625652.239,5.859,-30.273,-27.832,-6.836,0.000
1743625652.243,0.977,-31.738,-31.738,-12.695,0.000
1743625652.247,-7.324,-42.480,-34.668,-18.066,0.000
1743625652.251,-3.906,-34.180,-35.645,-10.254,0.000
1743625652.255,-3.906,-35.645,-36.133,-3.418,0.000
1743625652.259,-5.859,-37.109,-27.832,-3.906,0.000
1743625652.263,-4.883,-31.250,-23.438,1.465,0.000
1743625652.267,-9.277,-29.785,-25.391,-0.488,0.000
1743625652.271,-6.348,-42.480,-24.414,-4.395,0.000
1743625652.274,3.906,-35.645,-27.344,-5.371,0.000
1743625652.278,6.836,-20.508,-26.367,-1.465,0.000
1743625652.282,1.953,-31.738,-23.438,1.465,0.000
1743625652.286,6.348,-36.621,-23.926,-4.395,0.000
1743625652.290,7.324,-25.879,-27.832,-10.254,0.000
1743625652.294,5.859,-24.414,-25.879,-7.812,0.000
1743625652.298,0.000,-34.180,-25.391,-6.348,0.000
1743625652.302,0.000,-35.645,-22.949,-2.930,0.000
1743625652.306,0.000,-34.668,-24.414,-4.883,0.000
1743625652.310,0.000,-33.203,-26.367,-7.324,0.000
1743625652.314,0.000,-29.785,-25.879,-7.324,0.000
1743625652.317,0.000,-33.203,-26.855,-11.230,0.000
1743625652.321,0.000,-37.109,-32.227,-11.230,0.000
1743625652.325,0.000,-32.715,-36.133,-15.137,0.000
1743625652.329,0.000,-33.203,-35.156,-11.719,0.000
1743625652.333,0.000,-31.250,-32.227,-6.348,0.000
1743625652.337,0.000,-44.922,-31.738,-11.230,0.000
1743625652.341,0.000,-50.293,-26.855,-7.812,0.000
1743625652.345,-16.602,-30.273,-22.949,-4.883,0.000
1743625652.349,-18.555,-29.297,-25.391,-12.207,0.000
1743625652.353,-10.742,-45.898,-27.832,-5.859,0.000
1743625652.357,-7.812,-32.715,-29.785,-5.859,0.000
1743625652.360,-11.719,-8.301,-34.180,-13.672,0.000
1743625652.364,-17.090,-21.484,-30.273,-4.883,0.000
1743625652.368,-20.996,-32.227,-24.902,0.977,0.000
1743625652.372,-23.438,-34.668,-26.367,-3.418,0.000
1743625652.376,-30.762,-37.109,-31.738,-10.742,0.000
1743625652.380,-33.691,-37.598,-44.434,-21.484,0.000
1743625652.384,-34.180,-45.898,-43.457,-26.367,0.000
1743625652.388,-34.180,-46.875,-33.691,-28.320,0.000
1743625652.392,-29.785,-43.945,-31.250,-20.996,0.000
1743625652.396,-29.785,-41.992,-29.297,-18.066,0.000
1743625652.400,-33.691,-30.273,-24.414,-19.043,0.000
1743625652.403,-33.691,-38.086,-27.832,-21.973,0.000
1743625652.407,-33.203,-46.387,-39.062,-30.762,0.000
1743625652.411,-28.320,-34.180,-36.133,-28.809,0.000
1743625652.415,-23.438,-31.250,-32.715,-28.809,0.000
1743625652.419,-26.367,-32.715,-38.574,-26.855,0.000
1743625652.423,-29.297,-24.414,-39.062,-21.484,0.000
1743625652.427,-22.461,-23.438,-34.180,-18.555,0.000
1743625652.431,-19.531,-33.203,-28.320,-17.578,0.000
1743625652.435,-19.531,-32.715,-26.855,-18.066,0.000
1743625652.439,-15.625,-29.297,-22.949,-11.719,0.000
1743625652.442,-24.414,-36.621,-26.855,-10.254,0.000
1743625652.446,-34.180,-39.062,-33.203,-20.020,0.000
1743625652.450,-29.785,-31.738,-31.738,-20.996,0.000
1743625652.454,-23.438,-24.902,-35.156,-20.020,0.000
1743625652.458,-16.113,-25.879,-38.086,-19.531,0.000
1743625652.462,-12.207,-33.691,-35.645,-20.020,0.000
1743625652.466,-24.414,-34.668,-32.715,-23.926,0.000
1743625652.470,-30.273,-38.086,-34.180,-29.297,0.000
1743625652.474,-30.273,-47.852,-34.180,-32.227,0.000
1743625652.478,-30.762,-43.945,-30.273,-34.668,0.000
1743625652.482,-31.738,-31.738,-26.855,-35.156,0.000
1743625652.485,-33.203,-29.785,-31.250,-31.738,0.000
1743625652.489,-32.715,-28.320,-38.574,-35.645,0.000
1743625652.493,-28.809,-32.227,-39.062,-34.668,0.000
1743625652.497,-27.832,-37.598,-35.156,-32.715,0.000
1743625652.501,-31.738,-37.598,-35.645,-38.086,0.000
1743625652.505,-28.809,-39.551,-29.785,-29.785,0.000
1743625652.509,-31.250,-34.180,-26.367,-24.414,0.000
1743625652.513,-33.203,-29.785,-30.273,-24.902,0.000
1743625652.517,-31.250,-33.691,-29.297,-28.809,0.000
1743625652.521,-32.227,-40.039,-29.297,-29.297,0.000
1743625652.525,-23.438,-37.109,-32.227,-27.832,0.000
1743625652.528,-22.461,-31.738,-32.227,-31.738,0.000
1743625652.532,-37.598,-30.273,-33.203,-26.367,0.000
1743625652.536,-38.086,-28.320,-27.832,-21.973,0.000
1743625652.540,-26.367,-34.180,-21.484,-26.367,0.000
1743625652.544,-28.320,-37.598,-25.391,-38.574,0.000
1743625652.548,-24.902,-28.320,-26.367,-30.762,0.000
1743625652.552,-19.043,-20.020,-26.855,-19.043,0.000
1743625652.556,-20.508,-20.508,-32.227,-23.438,0.000
1743625652.560,-17.578,-24.414,-27.832,-24.902,0.000
1743625652.564,-16.602,-26.855,-31.738,-27.832,0.000
1743625652.567,-22.949,-38.086,-32.715,-25.879,0.000
1743625652.571,-27.832,-47.363,-23.926,-17.578,0.000
1743625652.575,-28.809,-41.992,-22.949,-20.996,0.000
1743625652.579,-27.344,-30.273,-24.414,-18.555,0.000
1743625652.583,-24.414,-21.973,-27.832,-20.508,0.000
1743625652.587,-21.484,-18.066,-27.344,-25.879,0.000
1743625652.591,-23.926,-22.461,-28.320,-22.949,0.000
1743625652.595,-27.344,-34.180,-23.438,-23.438,0.000
1743625652.599,-28.320,-32.715,-23.926,-25.391,0.000
1743625652.603,-39.062,-34.180,-36.621,-34.668,0.000
1743625652.607,-36.133,-31.250,-32.715,-36.133,0.000
1743625652.610,-27.832,-26.855,-36.621,-32.227,0.000
1743625652.614,-30.273,-35.645,-37.109,-33.691,0.000
1743625652.618,-33.203,-39.551,-30.273,-35.645,0.000
1743625652.622,-34.668,-35.156,-29.297,-34.668,0.000
1743625652.626,-32.715,-30.273,-33.203,-40.039,0.000
1743625652.630,-32.227,-40.527,-38.574,-42.480,0.000
1743625652.634,-33.203,-40.527,-37.109,-39.551,0.000
1743625652.638,-29.297,-27.344,-30.273,-34.180,0.000
1743625652.642,-24.902,-25.391,-29.297,-27.344,0.000
1743625652.646,-25.879,-24.902,-31.738,-24.902,0.000
1743625652.650,-26.367,-24.414,-27.344,-19.531,0.000
1743625652.653,-26.855,-27.344,-27.832,-23.438,0.000
1743625652.657,-26.855,-34.180,-28.320,-29.785,0.000
1743625652.661,-28.320,-41.992,-29.785,-36.621,0.000
1743625652.665,-27.344,-37.109,-23.438,-33.691,0.000
1743625652.669,-29.297,-31.738,-19.043,-26.367,0.000
1743625652.673,-32.715,-36.133,-23.438,-26.855,0.000
1743625652.677,-26.367,-37.598,-25.391,-24.414,0.000
1743625652.681,-28.809,-31.738,-27.832,-21.484,0.000
1743625652.685,-33.203,-37.109,-30.762,-26.367,0.000
1743625652.689,-28.320,-52.246,-27.344,-27.832,0.000
1743625652.692,-30.273,-46.387,-31.250,-29.785,0.000
1743625652.696,-26.855,-28.320,-36.133,-38.086,0.000
1743625652.700,-26.367,-27.832,-31.738,-36.621,0.000
1743625652.704,-27.344,-28.320,-23.926,-25.879,0.000
1743625652.708,-24.902,-27.832,-28.809,-28.809,0.000
1743625652.712,-28.320,-37.598,-31.738,-26.855,0.000
1743625652.716,-28.320,-39.551,-22.949,-27.344,0.000
1743625652.720,-38.574,-33.691,-31.250,-31.738,0.000
1743625652.724,-27.832,-29.785,-33.691,-25.391,0.000
1743625652.728,-22.949,-35.645,-34.668,-31.738,0.000
1743625652.732,-26.367,-39.062,-40.039,-39.062,0.000
1743625652.735,-21.484,-36.133,-35.645,-37.109,0.000
1743625652.739,-17.578,-25.879,-29.785,-32.715,0.000
1743625652.743,-20.020,-20.996,-28.809,-32.227,0.000
1743625652.747,-23.438,-33.203,-33.691,-41.016,0.000
1743625652.751,-22.949,-40.527,-30.762,-37.598,0.000
1743625652.755,-18.555,-32.227,-24.902,-34.180,0.000
1743625652.759,-17.090,-25.391,-29.785,-35.645,0.000
1743625652.763,-28.809,-36.621,-32.227,-34.180,0.000
1743625652.767,-39.062,-41.504,-29.785,-37.109,0.000
1743625652.771,-31.738,-36.133,-25.879,-37.109,0.000
1743625652.775,-32.227,-46.387,-26.855,-39.551,0.000
1743625652.778,-34.180,-51.758,-31.738,-39.062,0.000
1743625652.782,-28.809,-34.668,-32.227,-31.738,0.000
1743625652.786,-26.855,-29.297,-30.762,-36.133,0.000
1743625652.790,-23.438,-31.250,-29.785,-39.062,0.000
1743625652.794,-14.648,-27.344,-33.203,-32.715,0.000
1743625652.798,-18.555,-32.715,-34.668,-34.668,0.000
1743625652.802,-25.391,-35.645,-32.715,-38.086,0.000
1743625652.806,-31.250,-37.109,-34.668,-40.527,0.000
1743625652.810,-33.691,-35.156,-35.645,-35.645,0.000
1743625652.814,-32.715,-31.738,-36.621,-37.598,0.000
1743625652.817,-31.738,-38.574,-30.273,-30.273,0.000
1743625652.821,-33.203,-36.133,-29.297,-30.762,0.000
1743625652.825,-29.785,-29.785,-35.645,-37.598,0.000
1743625652.829,-30.762,-28.809,-33.203,-35.156,0.000
1743625652.833,-30.762,-28.320,-35.156,-38.574,0.000
1743625652.837,-22.461,-32.227,-42.480,-40.039,0.000
1743625652.841,-24.902,-30.762,-38.086,-34.668,0.000
1743625652.845,-27.832,-29.785,-34.668,-34.180,0.000
1743625652.849,-30.762,-36.621,-33.691,-44.434,0.000
1743625652.853,-38.086,-35.645,-27.344,-46.875,0.000
1743625652.857,-38.086,-31.738,-25.391,-47.852,0.000
1743625652.860,-34.668,-28.320,-25.391,-52.734,0.000
1743625652.864,-44.434,-27.344,-28.320,-54.199,0.000
1743625652.868,-50.781,-27.344,-39.062,-63.965,0.000
1743625652.872,-46.875,-23.926,-33.203,-73.242,0.000
1743625652.876,-59.570,-21.973,-28.809,-82.031,0.000
1743625652.880,-73.730,-14.648,-30.273,-90.820,0.000
1743625652.884,-88.379,-17.578,-30.273,-101.562,0.000
1743625652.888,-122.070,-23.926,-39.062,-128.418,0.000
1743625652.892,-155.273,-17.578,-40.039,-150.879,0.000
1743625652.896,-168.945,-7.812,-38.086,-169.922,0.000
1743625652.900,-184.570,-0.977,-45.898,-193.359,0.000
1743625652.903,-203.613,5.859,-51.758,-212.402,0.000
1743625652.907,-222.656,10.254,0.000,-140.625,0.000
1743625652.911,-252.930,2.930,0.000,-117.188,0.000
1743625652.915,-275.879,8.301,0.000,-101.074,0.000
1743625652.919,-279.297,12.207,0.000,-80.566,0.000
1743625652.923,-277.832,-0.488,0.000,-57.129,0.000
1743625652.927,-271.973,1.953,0.000,-36.133,0.000
1743625652.931,-251.465,7.812,0.000,-21.973,0.000
1743625652.935,-234.375,6.348,0.000,-11.230,0.000
1743625652.939,-216.797,13.184,0.000,1.953,0.000
1743625652.942,-202.637,13.184,0.000,1.953,0.000
1743625652.946,-182.129,9.766,0.000,3.418,0.000
1743625652.950,-152.344,10.254,0.000,17.090,0.000
1743625652.954,-133.789,5.859,-61.035,0.000,0.000
1743625652.958,-112.305,-4.883,-55.664,0.000,0.000
1743625652.962,-92.285,-14.160,-65.430,0.000,0.000
1743625652.966,-73.730,-13.672,-62.012,0.000,0.000
1743625652.970,-46.875,-19.043,-46.387,0.000,0.000
1743625652.974,-34.668,-20.508,-40.527,0.000,0.000
1743625652.978,-34.180,-24.414,-41.016,0.000,0.000
1743625652.982,-19.531,-30.273,-35.645,0.000,0.000
1743625652.985,-3.906,-34.668,-37.598,0.000,0.000
1743625652.989,-1.953,-32.715,-43.945,0.000,0.000
1743625652.993,0.977,-28.320,-38.574,0.000,0.000
1743625652.997,15.625,-32.715,-31.738,0.000,0.000
1743625653.001,22.949,-39.062,-25.391,28.809,0.000
1743625653.005,17.578,-41.016,-27.832,25.879,0.000
1743625653.009,14.160,-41.504,-32.227,21.973,0.000
1743625653.013,22.461,-43.945,-25.879,37.598,0.000
1743625653.017,28.809,-43.945,-22.949,41.016,0.000
1743625653.021,36.133,-40.527,-22.461,41.992,0.000
1743625653.025,43.457,-39.062,-20.996,46.875,0.000
1743625653.028,41.992,-42.969,-23.926,41.992,0.000
1743625653.032,44.434,-46.875,-20.996,40.039,0.000
1743625653.036,41.992,-41.016,-16.113,44.434,0.000
1743625653.040,40.527,-35.156,-17.578,46.387,0.000
1743625653.044,37.109,-33.691,-22.949,49.316,0.000
1743625653.048,39.551,-36.621,-20.996,55.176,0.000
1743625653.052,38.574,-34.180,-18.555,52.246,0.000
1743625653.056,28.320,-36.133,-19.043,43.945,0.000
1743625653.060,28.809,-46.387,-19.043,34.180,0.000
1743625653.064,28.809,-41.504,-21.484,30.273,0.000
1743625653.068,23.438,-39.062,-21.973,32.715,0.000
1743625653.071,25.391,-38.574,-18.066,33.691,0.000
1743625653.075,32.227,-41.504,-20.508,35.645,0.000
1743625653.079,33.203,-44.922,-25.391,40.527,0.000
1743625653.083,27.344,-41.016,-24.902,41.504,0.000
1743625653.087,21.973,-42.969,-20.996,35.645,0.000
1743625653.091,29.785,-53.711,-17.578,37.598,0.000
1743625653.095,52.246,-41.992,-17.090,44.922,0.000
1743625653.099,46.875,-25.879,-23.926,35.645,0.000
1743625653.103,31.250,-26.855,-29.297,24.414,0.000
1743625653.107,30.273,-28.809,-27.832,29.785,0.000
1743625653.110,26.367,-32.227,-23.926,32.715,0.000
1743625653.114,20.508,-36.621,-23.438,27.832,0.000
1743625653.118,21.484,-39.551,-19.531,29.785,0.000
1743625653.122,24.414,-49.316,-13.672,27.344,0.000
1743625653.126,14.648,-49.316,-23.438,16.602,0.000
1743625653.130,6.348,-40.039,-24.902,20.508,0.000
1743625653.134,11.719,-42.969,-15.625,28.320,0.000
1743625653.138,14.160,-44.922,-15.137,24.902,0.000
1743625653.142,17.578,-41.504,-18.066,19.043,0.000
1743625653.146,16.602,-43.457,-15.137,16.113,0.000
1743625653.150,21.484,-44.922,-14.160,20.996,0.000
1743625653.153,25.391,-41.504,-6.836,25.391,0.000
1743625653.157,23.926,-53.223,-10.742,20.020,0.000
1743625653.161,20.020,-56.152,-11.230,21.484,0.000
1743625653.165,14.160,-39.551,-13.672,17.090,0.000
1743625653.169,9.277,-40.527,-22.949,8.789,0.000
1743625653.173,4.883,-50.781,-19.043,9.766,0.000
1743625653.177,6.836,-44.922,-19.043,15.137,0.000
1743625653.181,11.230,-38.574,-26.855,13.184,0.000
1743625653.185,9.766,-41.016,-21.973,10.742,0.000
1743625653.189,4.883,-46.387,-13.184,12.695,0.000
1743625653.193,2.441,-49.805,-14.648,17.578,0.000
1743625653.196,2.930,-47.363,-12.695,22.461,0.000
1743625653.200,1.465,-46.387,-16.602,20.508,0.000
1743625653.204,3.418,-48.340,-18.555,19.043,0.000
1743625653.208,10.254,-51.270,-11.719,25.879,0.000
1743625653.212,5.371,-49.316,-16.602,24.414,0.000
1743625653.216,-3.906,-49.805,-21.973,15.137,0.000
1743625653.220,-1.465,-52.246,-26.855,4.395,0.000
1743625653.224,6.836,-41.504,-20.020,2.441,0.000
1743625653.228,1.953,-37.109,-13.184,0.000,0.000
1743625653.232,-5.859,-41.992,-19.043,-0.488,0.000
1743625653.235,-6.348,-41.504,-24.902,-1.465,0.000
1743625653.239,-8.301,-41.504,-24.902,-0.977,0.000
1743625653.243,-9.766,-35.645,-24.902,-1.953,0.000
1743625653.247,-3.418,-36.133,-23.926,0.488,0.000
1743625653.251,-4.883,-37.109,-27.344,1.953,0.000
1743625653.255,-6.836,-31.738,-27.344,-2.441,0.000
1743625653.259,-6.348,-36.133,-26.367,1.953,0.000
1743625653.263,-7.812,-40.039,-28.809,-0.977,0.000
1743625653.267,-10.742,-27.832,-26.367,-6.836,0.000
1743625653.271,-11.719,-26.855,-23.926,-2.441,0.000
1743625653.275,-10.254,-39.551,-20.020,-0.977,0.000
1743625653.278,-17.578,-42.480,-25.391,-15.137,0.000
1743625653.282,-16.113,-33.203,-31.250,-22.461,0.000
1743625653.286,-6.348,-27.344,-29.297,-18.555,0.000
1743625653.290,-8.789,-28.320,-23.438,-10.742,0.000
1743625653.294,-15.625,-28.809,-24.902,-14.160,0.000
1743625653.298,-12.207,-25.879,-21.973,-12.207,0.000
1743625653.302,-19.531,-33.691,-20.996,-4.395,0.000
1743625653.306,-30.273,-42.969,-26.855,-16.602,0.000
1743625653.310,-24.414,-42.969,-26.367,-18.066,0.000
1743625653.314,-17.090,-38.086,-23.926,-8.789,0.000
1743625653.318,-17.090,-33.691,-23.926,-11.230,0.000
1743625653.321,-12.207,-33.691,-26.855,-20.996,0.000
1743625653.325,-10.254,-28.320,-25.879,-22.461,0.000
1743625653.329,0.000,-21.973,-25.391,-23.926,0.000
1743625653.333,0.000,-31.738,-30.762,-34.180,0.000
1743625653.337,0.000,-32.715,-30.762,-31.738,0.000
1743625653.341,0.000,-26.855,-23.438,-21.973,0.000
1743625653.345,0.000,-24.414,-25.391,-18.066,0.000
1743625653.349,0.000,-18.555,-23.926,-18.555,0.000
1743625653.353,0.000,-24.414,-25.879,-20.996,0.000
1743625653.357,0.000,-35.156,-30.273,-20.996,0.000
1743625653.360,0.000,-41.504,-33.203,-28.809,0.000
1743625653.364,0.000,-44.922,-36.621,-27.344,0.000
1743625653.368,0.000,-34.180,-29.297,-18.555,0.000
1743625653.372,0.000,-31.738,-28.320,-20.508,0.000
1743625653.376,-23.926,-35.156,-28.809,-25.391,0.000
1743625653.380,-31.250,-38.574,-27.832,-25.391,0.000
1743625653.384,-35.156,-43.945,-34.668,-30.273,0.000
1743625653.388,-39.062,-38.086,-34.668,-40.527,0.000
1743625653.392,-42.480,-34.668,-33.691,-41.504,0.000
1743625653.396,-39.062,-41.016,-36.133,-37.598,0.000
1743625653.400,-31.250,-42.480,-36.621,-37.109,0.000
1743625653.403,-25.879,-32.227,-32.227,-31.738,0.000
1743625653.407,-22.461,-26.855,-25.391,-19.531,0.000
1743625653.411,-28.809,-34.180,-23.438,-14.160,0.000
1743625653.415,-29.297,-39.062,-23.438,-17.090,0.000
1743625653.419,-26.855,-37.109,-23.926,-18.066,0.000
1743625653.423,-32.715,-34.180,-24.414,-15.137,0.000
1743625653.427,-31.250,-25.879,-24.414,-20.020,0.000
1743625653.431,-26.367,-29.297,-27.832,-24.414,0.000
1743625653.435,-26.855,-33.203,-29.785,-20.996,0.000
1743625653.439,-29.297,-35.645,-27.832,-21.973,0.000
1743625653.443,-34.668,-38.086,-27.344,-27.344,0.000
1743625653.446,-34.668,-34.180,-31.250,-27.344,0.000
1743625653.450,-28.809,-25.879,-29.297,-24.414,0.000
1743625653.454,-26.367,-26.367,-22.949,-25.879,0.000
1743625653.458,-22.949,-35.156,-25.391,-29.297,0.000
1743625653.462,-26.367,-38.574,-25.879,-30.273,0.000
1743625653.466,-25.391,-36.621,-22.461,-26.367,0.000
1743625653.470,0.000,-24.414,0.000,-22.949,0.000
1743625653.474,0.000,-22.461,0.000,-23.926,0.000
1743625653.478,0.000,-32.715,0.000,-24.902,0.000
1743625653.482,0.000,-29.785,0.000,-24.902,0.000
1743625653.485,0.000,-25.391,0.000,-19.043,0.000
1743625653.489,0.000,-36.133,0.000,-21.484,0.000
1743625653.493,0.000,-40.039,0.000,-24.414,0.000
1743625653.497,0.000,-31.738,0.000,-11.719,0.000
1743625653.501,0.000,-36.133,0.000,-1.953,0.000
1743625653.505,0.000,-39.551,0.000,-0.977,0.000
1743625653.509,0.000,-38.086,0.000,-1.465,0.000
1743625653.513,0.000,-37.598,0.000,-6.348,0.000
1743625653.517,-19.531,-36.621,-11.719,1.465,0.000
1743625653.521,-0.977,-34.180,-9.277,14.648,0.000
1743625653.525,-3.906,-33.203,-18.066,6.348,0.000
1743625653.528,-10.742,-31.738,-26.367,-3.418,0.000
1743625653.532,-5.371,-24.414,-26.367,0.488,0.000
1743625653.536,-10.254,-27.344,-24.902,-0.977,0.000
1743625653.540,-6.836,-36.621,-21.973,-0.977,0.000
1743625653.544,-2.930,-30.762,-24.414,0.977,0.000
1743625653.548,-9.277,-33.203,-26.367,-2.930,0.000
1743625653.552,-11.719,-35.156,-21.484,-7.324,0.000
1743625653.556,-16.113,-31.738,-21.484,-6.836,0.000
1743625653.560,-13.672,-31.738,-32.715,-15.137,0.000
1743625653.564,-16.113,-38.086,-36.621,-20.996,0.000
1743625653.568,-16.113,-37.598,-34.180,-17.090,0.000
1743625653.571,-7.324,-20.996,-27.344,-9.766,0.000
1743625653.575,-6.836,-18.066,-26.855,-12.207,0.000
1743625653.579,-11.230,-33.691,-30.762,-27.344,0.000
1743625653.583,-9.277,-29.297,-22.461,-22.949,0.000
1743625653.587,-17.090,-18.066,-17.090,-16.602,0.000
1743625653.591,-22.461,-20.508,-25.879,-26.367,0.000
1743625653.595,-15.625,-25.879,-25.391,-23.926,0.000
1743625653.599,-29.785,-36.621,-26.367,-24.902,0.000
1743625653.603,-36.133,-48.340,-32.227,-30.273,0.000
1743625653.607,-22.949,-41.992,-24.414,-17.090,0.000
1743625653.610,-22.461,-32.227,-22.949,-17.578,0.000
1743625653.614,-22.949,-33.691,-28.809,-20.020,0.000
1743625653.618,-20.508,-28.809,-30.762,-17.578,0.000
1743625653.622,-19.531,-23.438,-30.273,-21.973,0.000
1743625653.626,-16.113,-27.344,-26.855,-29.785,0.000
1743625653.630,-20.020,-24.902,-29.785,-32.715,0.000
1743625653.634,-21.484,-20.996,-30.273,-28.320,0.000
1743625653.638,-19.531,-26.855,-24.414,-26.855,0.000
1743625653.642,-17.578,-27.344,-24.902,-21.973,0.000
1743625653.646,-20.508,-24.902,-33.203,-25.391,0.000
1743625653.650,-18.555,-19.043,-35.156,-27.344,0.000
1743625653.653,-14.648,-13.184,-25.391,-19.531,0.000
1743625653.657,-22.949,-23.438,-23.438,-23.438,0.000
1743625653.661,-29.297,-24.902,-30.273,-28.320,0.000
1743625653.665,-29.785,-17.090,-34.180,-22.461,0.000
1743625653.669,-28.320,-23.438,-28.809,-14.160,0.000
1743625653.673,-32.227,-30.762,-24.902,-19.531,0.000
1743625653.677,-28.809,-17.578,-26.855,-17.578,0.000
1743625653.681,-21.973,-15.625,-26.855,-13.184,0.000
1743625653.685,-22.949,-29.785,-22.949,-18.066,0.000
1743625653.689,-21.973,-30.762,-22.461,-17.578,0.000
1743625653.693,-25.879,-29.785,-25.391,-18.066,0.000
1743625653.696,-30.273,-33.203,-26.855,-24.902,0.000
1743625653.700,-27.832,-32.715,-29.785,-27.344,0.000
1743625653.704,-25.879,-36.133,-34.668,-29.297,0.000
1743625653.708,-26.855,-40.527,-30.762,-31.738,0.000
1743625653.712,-29.785,-40.527,-28.809,-30.273,0.000
1743625653.716,-31.738,-34.180,-30.762,-36.133,0.000
1743625653.720,-38.086,-28.809,-31.250,-38.574,0.000
1743625653.724,-43.457,-33.203,-35.156,-41.992,0.000
1743625653.728,-41.016,-41.016,-37.598,-45.410,0.000
1743625653.732,-39.551,-39.551,-34.668,-45.898,0.000
1743625653.735,-41.504,-36.133,-34.180,-41.016,0.000
1743625653.739,-47.852,-36.621,-36.133,-38.574,0.000
1743625653.743,-48.340,-36.133,-37.109,-40.527,0.000
1743625653.747,-37.598,-32.715,-33.691,-39.551,0.000
1743625653.751,0.000,-33.691,-34.668,-43.945,0.000
1743625653.755,0.000,-36.133,-27.344,-39.062,0.000
1743625653.759,0.000,-42.969,-23.438,-36.133,0.000
1743625653.763,0.000,-41.504,-29.297,-33.691,0.000
1743625653.767,0.000,-32.715,-29.785,-28.320,0.000
1743625653.771,0.000,-28.809,-33.203,-35.156,0.000
1743625653.775,0.000,-33.203,-29.785,-39.551,0.000
1743625653.778,0.000,-31.250,-27.344,-30.273,0.000
1743625653.782,0.000,-32.227,-35.156,-26.367,0.000
1743625653.786,0.000,-34.668,-38.574,-33.203,0.000
1743625653.790,0.000,-28.809,-37.598,-37.109,0.000
1743625653.794,0.000,-23.926,-36.133,-37.598,0.000
1743625653.798,-11.719,-23.926,-32.227,-36.621,0.000
1743625653.802,-23.926,-26.367,-29.297,-34.668,0.000
1743625653.806,-37.598,-32.715,-31.738,-36.621,0.000
1743625653.810,-33.691,-31.250,-34.180,-35.645,0.000
1743625653.814,-31.250,-24.414,-30.273,-40.527,0.000
1743625653.818,-43.457,-23.926,-29.297,-43.457,0.000
1743625653.821,-52.734,-23.926,-33.203,-48.340,0.000
1743625653.825,-65.918,-20.996,-34.180,-70.801,0.000
1743625653.829,-94.238,-18.066,-35.645,-95.215,0.000
1743625653.833,-112.305,-13.184,-41.504,-110.840,0.000
1743625653.837,-118.164,-1.465,-42.969,-120.117,0.000
1743625653.841,-131.348,7.324,-45.410,-133.789,0.000
1743625653.845,-149.414,14.160,-50.781,-158.691,0.000
1743625653.849,-164.551,19.531,-53.711,-176.758,0.000
1743625653.853,-172.852,21.484,-52.734,-182.129,0.000
1743625653.857,-198.730,17.090,-55.176,-201.660,0.000
1743625653.860,-213.867,20.508,-61.035,-217.773,0.000
1743625653.864,-219.727,20.508,-61.523,-229.980,0.000
1743625653.868,-222.656,11.230,-56.641,-233.887,0.000
1743625653.872,-218.262,13.184,-59.570,-231.445,0.000
1743625653.876,-221.191,13.672,-63.965,-238.281,0.000
1743625653.880,-225.098,7.812,-58.594,-244.629,0.000
1743625653.884,-214.844,3.418,-56.641,-236.328,0.000
1743625653.888,-199.219,-10.742,-56.641,-212.891,0.000
1743625653.892,0.000,-24.414,-52.246,-200.195,0.000
1743625653.896,0.000,-13.672,-46.875,-187.500,0.000
1743625653.900,0.000,5.859,-48.828,-160.645,0.000
1743625653.903,0.000,6.348,-54.199,-139.160,0.000
1743625653.907,0.000,-8.301,-51.270,-118.164,0.000
1743625653.911,0.000,-23.438,-48.340,-91.309,0.000
1743625653.915,0.000,-17.578,-53.223,-69.824,0.000
1743625653.919,0.000,-18.555,-56.152,-54.199,0.000
1743625653.923,0.000,-16.602,-46.387,-30.762,0.000
1743625653.927,0.000,-16.602,-45.410,-20.020,0.000
1743625653.931,0.000,-30.273,-47.363,-13.184,0.000
1743625653.935,0.000,-30.273,-41.504,4.395,0.000
1743625653.939,-185.547,-35.645,-40.039,15.137,0.000
1743625653.943,-159.668,-48.340,-40.527,21.973,0.000
1743625653.946,-135.254,-44.434,-34.668,32.227,0.000
1743625653.950,-122.070,-30.273,-28.809,35.645,0.000
1743625653.954,-100.098,-27.832,-28.809,31.738,0.000
1743625653.958,-75.684,-26.855,-30.762,34.668,0.000
1743625653.962,-59.570,-26.855,-36.133,39.551,0.000
1743625653.966,-48.828,-31.250,-37.109,37.598,0.000
1743625653.970,-24.414,-31.738,-35.645,33.691,0.000
1743625653.974,-9.766,-34.180,-35.156,34.668,0.000
1743625653.978,-4.395,-38.574,-31.738,30.762,0.000
1743625653.982,13.672,-35.645,-29.297,29.785,0.000
1743625653.985,28.809,-31.250,-28.809,33.203,0.000
1743625653.989,33.203,-32.715,-28.809,28.320,0.000
1743625653.993,24.414,-40.527,-30.762,20.020,0.000
1743625653.997,21.484,-42.480,-32.227,20.508,0.000
1743625654.001,25.391,-45.410,-34.180,17.090,0.000
1743625654.005,25.391,-50.293,-31.250,21.973,0.000
1743625654.009,22.949,-46.875,-24.902,30.762,0.000
1743625654.013,21.484,-46.875,-20.508,23.926,0.000
1743625654.017,23.926,-39.551,-19.043,20.020,0.000
1743625654.021,24.902,-27.344,-20.996,25.391,0.000
1743625654.025,29.297,-28.809,-19.531,25.879,0.000
1743625654.028,30.273,-35.645,-23.438,25.391,0.000
1743625654.032,27.344,-38.086,-20.508,33.203,0.000
1743625654.036,26.367,-36.621,-18.066,37.109,0.000
1743625654.040,22.949,-41.016,-19.043,30.762,0.000
1743625654.044,25.391,-46.387,-16.602,33.203,0.000
1743625654.048,29.297,-40.527,-17.090,34.180,0.000
1743625654.052,24.902,-28.809,-15.137,34.180,0.000
1743625654.056,16.602,-30.762,-21.484,28.320,0.000
1743625654.060,10.742,-37.598,-25.391,22.461,0.000
1743625654.064,10.742,-37.109,-19.531,27.344,0.000
1743625654.068,7.324,-40.527,-22.461,26.367,0.000
1743625654.071,8.301,-34.668,-20.508,23.438,0.000
1743625654.075,1.953,-34.668,-21.484,8.301,0.000
1743625654.079,-4.883,-43.457,-27.344,-5.371,0.000
1743625654.083,-2.930,-42.969,-23.926,-0.488,0.000
1743625654.087,-6.348,-49.805,-23.926,4.395,0.000
1743625654.091,-6.348,-51.758,-23.926,6.348,0.000
1743625654.095,-6.348,-33.691,-23.438,-0.488,0.000
1743625654.099,-5.859,-27.344,-26.855,-5.371,0.000
1743625654.103,-1.465,-26.855,-25.391,0.488,0.000
1743625654.107,3.418,-25.879,-20.996,2.441,0.000
1743625654.110,3.906,-27.344,-20.996,-1.465,0.000
1743625654.114,0.977,-30.273,-16.602,-4.395,0.000
1743625654.118,8.301,-29.785,-17.090,2.441,0.000
1743625654.122,17.090,-24.414,-21.973,1.953,0.000
1743625654.126,-0.488,-32.715,-17.578,-11.230,0.000
1743625654.130,-25.391,-40.039,-15.137,-30.273,0.000
1743625654.134,-29.785,-36.621,-14.648,-34.668,0.000
1743625654.138,-31.250,-41.504,-18.555,-31.738,0.000
1743625654.142,-52.246,-48.828,-20.020,-40.527,0.000
1743625654.146,-61.035,-57.617,-18.066,-42.969,0.000
1743625654.150,-45.410,-54.688,-13.184,-30.273,0.000
1743625654.153,-51.270,-48.340,-15.137,-36.621,0.000
1743625654.157,-56.152,-51.758,-19.043,-45.410,0.000
1743625654.161,-41.992,-51.270,-11.719,-32.227,0.000
1743625654.165,-43.457,-55.664,-10.254,-23.926,0.000
1743625654.169,-47.363,-65.918,-14.648,-22.461,0.000
1743625654.173,-36.621,-58.105,-15.137,-17.578,0.000
1743625654.177,-34.180,-51.758,-15.625,-15.137,0.000
1743625654.181,-33.691,-51.758,-14.160,-17.578,0.000
1743625654.185,-27.832,-47.852,-13.184,-17.090,0.000
1743625654.189,-29.785,-48.340,-12.207,-14.160,0.000
1743625654.193,-31.738,-52.734,-12.207,-20.020,0.000
1743625654.196,-36.133,-54.688,-15.625,-25.879,0.000
1743625654.200,-32.715,-47.363,-16.113,-17.578,0.000
1743625654.204,-24.414,-49.805,-12.695,-9.766,0.000
1743625654.208,-24.414,-58.594,-9.766,-13.672,0.000
1743625654.212,-22.461,-50.293,-15.625,-13.184,0.000
1743625654.216,-18.555,-41.016,-14.160,-14.160,0.000
1743625654.220,-18.066,-36.621,0.000,-14.160,0.000
1743625654.224,-20.020,-37.598,0.000,-9.766,0.000
1743625654.228,-23.438,-38.574,0.000,-11.719,0.000
1743625654.232,-26.855,-34.180,0.000,-14.160,0.000
1743625654.236,-19.531,-35.645,0.000,-9.766,0.000
1743625654.239,-12.695,-32.715,0.000,-8.789,0.000
1743625654.243,-14.160,-31.250,0.000,-8.789,0.000
1743625654.247,-6.836,-45.898,0.000,-10.742,0.000
1743625654.251,-3.906,-42.480,0.000,-11.230,0.000
1743625654.255,-8.301,-32.227,0.000,-5.371,0.000
1743625654.259,-10.254,-30.762,0.000,-2.441,0.000
1743625654.263,-17.090,-34.668,0.000,-12.207,0.000
1743625654.267,-25.391,-39.551,-31.738,-18.555,0.000
1743625654.271,-27.832,-36.621,-30.762,-21.484,0.000
1743625654.275,-31.738,-37.598,-27.832,-18.066,0.000
1743625654.278,-22.949,-39.551,-27.344,-13.184,0.000
1743625654.282,-19.043,-42.969,-29.785,-20.996,0.000
1743625654.286,-27.344,-45.410,-26.367,-23.926,0.000
1743625654.290,-23.926,-36.133,-26.367,-22.461,0.000
1743625654.294,-22.949,-37.109,-30.273,-22.949,0.000
1743625654.298,-23.438,-32.227,-30.273,-21.484,0.000
1743625654.302,-22.949,-29.785,-29.297,-21.973,0.000
1743625654.306,-16.602,-25.391,-28.320,-12.695,0.000
1743625654.310,-20.996,-30.273,-32.715,-13.672,0.000
1743625654.314,-38.574,-43.457,-31.738,-23.438,0.000
1743625654.318,-45.410,-45.410,-27.344,-22.949,0.000
1743625654.321,-39.062,-44.434,-25.879,-18.066,0.000
1743625654.325,-20.996,-40.039,-27.832,-13.672,0.000
1743625654.329,-19.531,-34.668,-32.715,-8.301,0.000
1743625654.333,-16.602,-27.344,-29.785,-2.930,0.000
1743625654.337,-8.789,-33.203,-27.832,-8.789,0.000
1743625654.341,-6.348,-39.551,-27.832,-6.836,0.000
1743625654.345,-0.977,-28.809,-22.949,0.000,0.000
1743625654.349,-8.301,-26.855,-24.902,-6.348,0.000
1743625654.353,-17.578,-32.227,-23.926,-4.395,0.000
1743625654.357,-21.484,-30.762,-24.414,-4.883,0.000
1743625654.361,-20.996,-28.320,-27.832,-12.695,0.000
1743625654.364,-22.949,-26.367,-25.391,-9.277,0.000
1743625654.368,-20.996,-26.855,-21.973,-13.184,0.000
1743625654.372,-16.113,-30.762,-18.555,-21.973,0.000
1743625654.376,-26.855,-31.250,-20.996,-29.785,0.000
1743625654.380,-23.926,-23.438,-22.461,-26.367,0.000
1743625654.384,-15.625,-29.297,-26.855,-21.973,0.000
1743625654.388,-22.461,-49.805,-34.668,-28.809,0.000
1743625654.392,-20.508,-47.852,-29.785,-24.414,0.000
1743625654.396,-8.301,-35.156,-20.508,-15.625,0.000
1743625654.400,-7.324,-31.738,-17.578,-16.113,0.000
1743625654.403,-5.859,-33.203,-22.461,-17.090,0.000
1743625654.407,-6.348,-37.109,-24.902,-15.137,0.000
1743625654.411,-12.207,-34.180,-23.438,-16.113,0.000
1743625654.415,-10.254,-32.715,-36.133,-20.508,0.000
1743625654.419,-9.766,-31.738,-40.039,-19.043,0.000
1743625654.423,-13.184,-30.762,-35.156,-18.555,0.000
1743625654.427,-16.113,-30.762,-27.832,-23.926,0.000
1743625654.431,-17.090,-33.203,-25.391,-23.438,0.000
1743625654.435,-20.020,-32.715,-26.367,-20.996,0.000
1743625654.439,-25.391,-24.902,-25.879,-15.137,0.000
1743625654.443,-27.832,-32.227,-28.320,-22.461,0.000
1743625654.446,-29.785,-36.133,-26.855,-30.762,0.000
1743625654.450,-32.227,-31.738,-27.344,-30.273,0.000
1743625654.454,-35.645,-31.738,-29.785,-32.227,0.000
1743625654.458,-44.922,-36.621,-32.227,-43.457,0.000
1743625654.462,-43.457,-32.715,-31.250,-45.410,0.000
1743625654.466,-34.668,-19.043,-27.832,-34.668,0.000
1743625654.470,-29.785,-25.879,-26.367,-28.320,0.000
1743625654.474,-24.902,-41.992,-28.809,-22.949,0.000
1743625654.478,-24.902,-43.457,-30.273,-19.043,0.000
1743625654.482,-28.320,-31.738,-27.832,-23.438,0.000
1743625654.486,-26.855,-20.996,-23.438,-17.578,0.000
1743625654.489,-25.391,-27.832,-23.926,-8.789,0.000
1743625654.493,-21.484,-32.227,-21.973,-5.859,0.000
1743625654.497,-19.531,-34.180,-25.391,-13.672,0.000
1743625654.501,-21.484,-26.855,-29.297,-18.066,0.000
1743625654.505,-21.973,-22.461,-27.832,-16.113,0.000
1743625654.509,-27.344,-35.156,-32.227,-18.066,0.000
1743625654.513,-25.391,-34.180,-31.250,-13.184,0.000
1743625654.517,-22.461,-24.414,-30.762,-17.578,0.000
1743625654.521,-27.344,-24.902,-33.203,-29.785,0.000
1743625654.525,-26.367,-37.109,-30.762,-30.273,0.000
1743625654.528,-27.832,-39.551,-26.367,-36.133,0.000
1743625654.532,-35.645,-36.621,-30.273,-46.875,0.000
1743625654.536,-42.969,-35.645,-37.598,-50.781,0.000
1743625654.540,-48.340,-34.668,-36.621,-55.176,0.000
1743625654.544,-42.969,-33.691,-31.250,-49.316,0.000
1743625654.548,-37.598,-22.949,-27.832,-45.898,0.000
1743625654.552,-41.016,-28.809,-31.738,-43.945,0.000
1743625654.556,-36.133,-43.945,-34.668,-37.109,0.000
1743625654.560,-40.039,-44.434,-37.598,-37.598,0.000
1743625654.564,-42.969,-34.180,-32.715,-37.109,0.000
1743625654.568,-35.645,-29.297,-30.273,-33.691,0.000
1743625654.571,-30.762,-32.227,-30.762,-35.156,0.000
1743625654.575,-30.762,-34.668,-26.855,-27.832,0.000
1743625654.579,-32.227,-38.086,-25.879,-19.043,0.000
1743625654.583,-27.832,-30.273,-22.949,-11.230,0.000
1743625654.587,-28.809,-26.855,-22.461,-13.672,0.000
1743625654.591,-34.180,-43.945,-30.273,-16.602,0.000
1743625654.595,-28.809,-41.016,-28.809,-16.602,0.000
1743625654.599,-16.113,-33.203,-23.926,-20.020,0.000
1743625654.603,-12.207,-39.551,-28.809,-26.855,0.000
1743625654.607,-16.602,-41.016,-27.832,-27.832,0.000
1743625654.611,-16.602,-34.668,-28.809,-25.391,0.000
1743625654.614,-25.391,-33.203,-30.762,-22.949,0.000
1743625654.618,-25.879,-38.574,-23.926,-18.066,0.000
1743625654.622,-23.926,-31.738,-18.066,-17.578,0.000
1743625654.626,-35.645,-28.809,-21.973,-29.785,0.000
1743625654.630,-33.203,-29.297,-23.926,-35.645,0.000
1743625654.634,-20.996,-28.320,-21.973,-32.715,0.000
1743625654.638,-16.602,-31.738,-21.484,-30.273,0.000
1743625654.642,-15.625,-27.832,-23.926,-33.203,0.000
1743625654.646,-15.625,-27.344,-29.785,-37.109,0.000
1743625654.650,-20.508,-31.250,-37.598,-37.598,0.000
1743625654.653,-20.508,-28.809,-35.156,-36.133,0.000
1743625654.657,-15.137,-28.809,-29.297,-35.645,0.000
1743625654.661,-17.578,-28.320,-32.227,-41.992,0.000
1743625654.665,-27.832,-20.508,-38.574,-45.898,0.000
1743625654.669,-42.969,-32.715,-39.062,-45.410,0.000
1743625654.673,-34.180,-39.551,-32.715,-34.180,0.000
1743625654.677,-20.996,-24.414,-31.250,-29.785,0.000
1743625654.681,-39.551,-20.508,-34.180,-51.270,0.000
1743625654.685,-59.082,-19.043,-38.086,-67.871,0.000
1743625654.689,-63.477,-12.695,-38.574,-76.172,0.000
1743625654.693,-77.637,-5.859,-36.621,-95.215,0.000
1743625654.696,-105.469,-6.836,-43.457,-120.117,0.000
1743625654.700,-123.535,-8.301,-53.223,-141.113,0.000
1743625654.704,-145.996,3.906,-56.152,-169.434,0.000
1743625654.708,-172.852,14.160,-66.895,-196.289,0.000
1743625654.712,-189.941,12.695,-78.125,-212.891,0.000
1743625654.716,-230.469,18.555,-82.031,-250.000,0.000
1743625654.720,-260.742,32.715,-87.891,-280.762,0.000
1743625654.724,-270.020,33.691,-90.820,-293.945,0.000
1743625654.728,-296.875,24.902,-92.285,-315.430,0.000
1743625654.732,-304.199,14.648,-87.891,-323.242,0.000
1743625654.736,-307.129,10.254,-84.961,-330.078,0.000
1743625654.739,-310.547,17.090,-83.984,-336.914,0.000
1743625654.743,-296.875,13.184,-73.730,-325.195,0.000
1743625654.747,-280.762,-11.719,-71.289,-314.941,0.000
1743625654.751,-271.484,-11.230,-73.730,-302.246,0.000
1743625654.755,-263.672,6.836,-70.801,-289.551,0.000
1743625654.759,-251.953,9.277,-72.266,-283.691,0.000
1743625654.763,-226.074,1.953,-70.312,-262.207,0.000
1743625654.767,-200.684,2.930,-67.383,-228.027,0.000
1743625654.771,-189.941,0.488,-75.195,-210.938,0.000
1743625654.775,-169.922,-1.953,-72.266,-183.594,0.000
1743625654.778,-141.602,-7.324,-70.312,-154.785,0.000
1743625654.782,0.000,-7.324,-69.336,-125.488,0.000
1743625654.786,0.000,-2.930,-67.383,-97.656,0.000
1743625654.790,0.000,-12.207,-70.801,-83.008,0.000
1743625654.794,0.000,-7.812,-64.941,-61.523,0.000
1743625654.798,0.000,-16.113,-65.918,-44.434,0.000
1743625654.802,0.000,-27.832,-71.289,-36.621,0.000
1743625654.806,0.000,-27.344,-65.430,-23.926,0.000
1743625654.810,0.000,-29.785,-58.105,-4.883,0.000
1743625654.814,0.000,-42.480,-50.781,13.184,0.000
1743625654.818,0.000,-47.363,-49.316,12.695,0.000
1743625654.821,0.000,-43.457,-46.875,16.113,0.000
1743625654.825,0.000,-35.156,-43.945,29.297,0.000
1743625654.829,41.016,-28.809,-40.039,36.621,0.000
1743625654.833,39.551,-31.250,-31.738,41.504,0.000
1743625654.837,37.598,-27.344,-30.762,41.992,0.000
1743625654.841,37.109,-26.367,-32.227,45.410,0.000
1743625654.845,36.621,-37.109,-31.250,51.270,0.000
1743625654.849,41.504,-40.039,-30.273,52.734,0.000
1743625654.853,41.504,-40.527,-24.414,56.641,0.000
1743625654.857,43.945,-33.203,-22.949,52.246,0.000
1743625654.861,47.852,-34.180,-24.414,49.805,0.000
1743625654.864,47.363,-49.805,-22.461,56.152,0.000
1743625654.868,49.316,-45.410,-20.508,56.641,0.000
1743625654.872,42.969,-46.387,-21.484,45.898,0.000
1743625654.876,42.969,-48.828,-20.020,39.062,0.000
1743625654.880,45.410,-39.062,-13.184,40.527,0.000
1743625654.884,42.969,-42.969,-14.648,40.039,0.000
1743625654.888,40.527,-46.387,-21.973,36.621,0.000
1743625654.892,41.992,-41.504,-21.973,37.598,0.000
1743625654.896,43.457,-40.527,-17.090,40.039,0.000
1743625654.900,44.922,-42.480,-17.090,41.016,0.000
1743625654.903,45.898,-37.598,-12.695,47.852,0.000
1743625654.907,47.363,-29.297,-13.184,49.316,0.000
1743625654.911,43.457,-35.156,-21.484,37.109,0.000
1743625654.915,36.133,-39.551,-24.414,28.320,0.000
1743625654.919,39.062,-41.504,-22.461,33.691,0.000
1743625654.923,41.016,-45.898,-22.949,35.156,0.000
1743625654.927,35.156,-43.457,-21.484,27.832,0.000
1743625654.931,33.203,-33.691,-18.555,29.297,0.000
1743625654.935,32.227,-29.785,-22.461,30.762,0.000
1743625654.939,25.879,-38.574,-20.996,22.949,0.000
1743625654.943,26.855,-40.527,-18.555,25.879,0.000
1743625654.946,23.438,-42.480,-22.461,23.926,0.000
1743625654.950,33.691,-40.039,-14.648,22.949,0.000
1743625654.954,36.133,-39.062,-17.090,20.020,0.000
1743625654.958,20.020,-42.480,-26.367,12.695,0.000
1743625654.962,10.254,-48.828,-26.367,13.672,0.000
1743625654.966,9.277,-48.340,-14.648,17.090,0.000
1743625654.970,14.160,-38.086,-7.812,22.949,0.000
1743625654.974,10.742,-40.527,-13.672,22.949,0.000
1743625654.978,9.766,-43.945,-16.602,15.625,0.000
1743625654.982,17.090,-42.480,-10.742,17.578,0.000
1743625654.986,18.066,-41.504,-8.789,23.438,0.000
1743625654.989,15.137,-41.992,-12.695,15.625,0.000
1743625654.993,16.113,-44.434,-16.602,9.277,0.000
1743625654.997,10.742,-40.527,-11.230,13.672,0.000
1743625655.001,5.859,-29.297,-8.789,9.766,0.000
1743625655.005,-1.465,-30.762,-11.719,1.465,0.000
1743625655.009,-2.930,-34.668,-9.277,7.324,0.000
1743625655.013,1.465,-32.715,-8.301,13.672,0.000
1743625655.017,-0.977,-27.344,-11.230,5.371,0.000
1743625655.021,0.000,-27.344,-5.859,7.324,0.000
1743625655.025,5.371,-28.320,-4.883,11.230,0.000
1743625655.028,9.766,-29.785,-15.137,5.859,0.000
1743625655.032,4.883,-37.109,-22.949,-5.371,0.000
1743625655.036,6.348,-42.969,-22.461,-7.324,0.000
1743625655.040,9.277,-39.551,-20.508,5.371,0.000
1743625655.044,-5.859,-26.367,-25.879,0.977,0.000
1743625655.048,-13.672,-24.902,-29.785,-5.859,0.000
1743625655.052,-9.277,-28.320,-27.344,3.418,0.000
1743625655.056,-3.906,-30.273,-28.320,-0.977,0.000
1743625655.060,1.953,-32.715,-29.297,0.000,0.000
1743625655.064,4.395,-35.156,-21.973,3.906,0.000
1743625655.068,7.324,-31.250,-24.902,-3.418,0.000
1743625655.071,3.906,-24.902,-29.785,-6.348,0.000
1743625655.075,-4.883,-27.832,-25.391,-5.371,0.000
1743625655.079,-8.301,-32.715,-20.508,-2.441,0.000
1743625655.083,-5.859,-35.645,-21.484,0.488,0.000
1743625655.087,0.977,-33.691,-26.855,-2.441,0.000
1743625655.091,-2.930,-23.926,-25.391,-8.301,0.000
1743625655.095,-7.324,-32.227,-27.344,-11.230,0.000
1743625655.099,-6.836,-41.016,-30.762,-6.348,0.000
1743625655.103,-11.230,-35.156,-25.391,-4.395,0.000
1743625655.107,-13.184,-36.621,-22.461,-4.395,0.000
1743625655.111,-13.184,-35.645,-26.367,-9.766,0.000
1743625655.114,-10.742,-24.414,-25.879,-3.418,0.000
1743625655.118,-8.301,-24.414,-22.461,-5.371,0.000
1743625655.122,-16.602,-35.645,-26.855,-19.043,0.000
1743625655.126,-25.879,-39.551,-24.902,-10.254,0.000
1743625655.130,-16.113,-28.320,-19.531,-7.812,0.000
1743625655.134,-8.301,-25.879,-21.484,-15.625,0.000
1743625655.138,-16.113,-36.133,-18.555,-12.695,0.000
1743625655.142,-12.695,-36.621,-24.414,-14.160,0.000
1743625655.146,-10.742,-30.273,-35.156,-21.973,0.000
1743625655.150,-14.648,-31.738,-33.203,-19.531,0.000
1743625655.153,-10.742,-38.574,-26.367,-14.648,0.000
1743625655.157,-12.695,-42.480,-27.344,-13.184,0.000
1743625655.161,-20.996,-38.086,-29.785,-13.672,0.000
1743625655.165,-28.809,-30.762,-32.227,-23.438,0.000
1743625655.169,-25.391,-23.438,-32.227,-25.391,0.000
1743625655.173,-20.996,-28.809,-30.273,-24.414,0.000
1743625655.177,-27.344,-35.645,-24.414,-21.973,0.000
1743625655.181,-31.250,-30.762,-20.996,-18.555,0.000
1743625655.185,-27.832,-28.320,-27.832,-21.484,0.000
1743625655.189,-24.414,-28.320,-26.367,-23.438,0.000
1743625655.193,-22.461,-30.762,-27.344,-23.438,0.000
1743625655.196,-18.555,-27.832,-32.227,-17.578,0.000
1743625655.200,-20.508,-23.438,-29.297,-12.695,0.000
1743625655.204,-18.066,-23.438,-22.461,-7.812,0.000
1743625655.208,-16.113,-27.344,-20.020,-1.953,0.000
1743625655.212,-19.043,-41.504,-22.949,-0.977,0.000
1743625655.216,-22.949,-41.016,-25.391,-8.301,0.000
1743625655.220,-22.461,-34.180,-16.113,-10.742,0.000
1743625655.224,-26.367,-39.062,-15.625,-9.766,0.000
1743625655.228,-30.762,-34.668,-28.320,-14.648,0.000
1743625655.232,-33.691,-31.738,-37.109,-23.438,0.000
1743625655.236,-33.691,-32.715,-37.109,-28.320,0.000
1743625655.239,-31.738,-33.691,-33.691,-23.926,0.000
1743625655.243,-31.738,-32.715,-32.715,-20.996,0.000
1743625655.247,-26.855,-27.344,-34.668,-17.578,0.000
1743625655.251,-25.391,-30.762,-32.715,-15.137,0.000
1743625655.255,-29.297,-32.715,-27.344,-19.531,0.000
1743625655.259,-33.203,-31.250,-25.879,-25.879,0.000
1743625655.263,-43.945,-34.180,-30.762,-31.250,0.000
1743625655.267,-43.945,-34.668,-31.250,-33.203,0.000
1743625655.271,-32.715,-24.902,-25.879,-25.879,0.000
1743625655.275,-28.320,-30.762,-33.203,-29.297,0.000
1743625655.278,-26.367,-39.062,-40.527,-39.062,0.000
1743625655.282,-30.273,-36.133,-35.156,-33.203,0.000
1743625655.286,-27.344,-41.016,-26.855,-29.785,0.000
1743625655.290,-24.414,-41.504,-22.949,-32.715,0.000
1743625655.294,-21.973,-30.762,-29.785,-31.250,0.000
1743625655.298,-28.809,-21.973,-32.227,-32.715,0.000
1743625655.302,-32.227,-24.414,-31.250,-32.715,0.000
1743625655.306,-27.344,-34.668,-32.227,-32.227,0.000
1743625655.310,-16.602,-29.785,-32.715,-33.691,0.000
1743625655.314,-11.719,-18.555,-37.598,-23.926,0.000
1743625655.318,-27.344,-21.973,-30.273,-22.949,0.000
1743625655.321,-42.969,-27.344,-23.438,-35.645,0.000
1743625655.325,-34.668,-30.273,-25.879,-30.273,0.000
1743625655.329,-23.438,-36.133,-23.926,-20.508,0.000
1743625655.333,-16.113,-40.039,-19.043,-9.766,0.000
1743625655.337,-17.090,-40.527,-19.043,-7.812,0.000
1743625655.341,-20.996,-39.551,-23.438,-11.719,0.000
1743625655.345,-15.625,-39.551,0.000,-0.488,0.000
1743625655.349,-7.812,-41.016,0.000,5.371,0.000
1743625655.353,-1.953,-41.504,0.000,1.953,0.000
1743625655.357,1.465,-40.527,0.000,4.883,0.000
1743625655.361,-2.441,-40.039,0.000,5.859,0.000
1743625655.364,-1.465,-38.086,0.000,0.488,0.000
1743625655.368,-6.836,-28.809,0.000,0.977,0.000
1743625655.372,-20.020,-22.461,0.000,-5.859,0.000
1743625655.376,-18.066,-29.785,0.000,-14.160,0.000
1743625655.380,-18.066,-35.645,0.000,-14.648,0.000
1743625655.384,-21.973,-36.621,0.000,-13.672,0.000
1743625655.388,-19.043,-38.086,0.000,-7.324,0.000
1743625655.392,-16.113,-43.457,-19.531,0.488,0.000
1743625655.396,-20.508,-28.809,-17.090,5.859,0.000
1743625655.400,-19.043,-21.973,-14.648,6.348,0.000
1743625655.404,-16.602,-30.273,-12.695,-6.348,0.000
1743625655.407,-20.020,-30.273,-19.043,-11.230,0.000
1743625655.411,-21.973,-31.250,-19.531,-4.395,0.000
1743625655.415,-19.043,-29.297,-16.602,-1.953,0.000
1743625655.419,-19.043,-24.902,-20.020,-4.395,0.000
1743625655.423,-17.578,-26.367,-24.414,-6.836,0.000
1743625655.427,-20.020,-39.551,-28.809,-7.812,0.000
1743625655.431,-26.367,-44.434,-28.809,-5.859,0.000
1743625655.435,-22.461,-25.391,-22.949,0.488,0.000
1743625655.439,-13.184,-15.625,-21.973,-4.395,0.000
1743625655.443,-16.602,-26.367,-25.879,-7.324,0.000
1743625655.446,-18.066,-33.203,-26.367,-4.395,0.000
1743625655.450,-22.461,-36.133,-28.809,-7.324,0.000
1743625655.454,-25.879,-35.156,-27.344,-15.625,0.000
1743625655.458,-22.461,-27.344,-23.926,-24.414,0.000
1743625655.462,-24.414,-26.855,-23.926,-24.414,0.000
1743625655.466,-28.320,-25.391,-26.367,-20.508,0.000
1743625655.470,-31.738,-24.414,-34.180,-28.809,0.000
1743625655.474,-28.809,-32.715,-32.715,-31.250,0.000
1743625655.478,-25.391,-36.133,-23.926,-31.250,0.000
1743625655.482,-22.461,-30.762,-20.020,-26.367,0.000
1743625655.486,-26.367,-29.297,0.000,-24.902,0.000
1743625655.489,-27.832,-34.668,0.000,-27.832,0.000
1743625655.493,-27.344,-38.574,0.000,-23.438,0.000
1743625655.497,-36.133,-31.250,0.000,-26.855,0.000
1743625655.501,-35.156,-21.484,0.000,-33.691,0.000
1743625655.505,-34.668,-21.973,0.000,-29.297,0.000
1743625655.509,-44.922,-33.203,0.000,-31.738,0.000
1743625655.513,-40.039,-37.109,0.000,-31.738,0.000
1743625655.517,-29.297,-25.391,0.000,-28.320,0.000
1743625655.521,-27.344,-27.344,0.000,-29.785,0.000
1743625655.525,-22.461,-29.785,0.000,-30.762,0.000
1743625655.529,-20.508,-27.344,0.000,-31.250,0.000
1743625655.532,-32.715,-31.250,-29.297,-33.691,0.000
1743625655.536,-27.832,-29.297,-30.273,-29.785,0.000
1743625655.540,-21.484,-39.062,-25.391,-24.902,0.000
1743625655.544,-35.645,-40.527,-24.902,-29.297,0.000
1743625655.548,-45.410,-36.133,-33.203,-39.062,0.000
1743625655.552,-35.645,-43.945,-32.227,-33.203,0.000
1743625655.556,-25.879,-46.387,-34.180,-23.438,0.000
1743625655.560,-35.645,-43.457,-36.621,-34.668,0.000
1743625655.564,-48.340,-31.250,-35.156,-52.246,0.000
1743625655.568,-48.340,-23.926,-42.969,-60.059,0.000
1743625655.571,-44.922,-34.668,-44.922,-62.012,0.000
1743625655.575,-36.133,-34.180,-41.504,-52.246,0.000
1743625655.579,-34.668,-11.230,-37.109,-51.270,0.000
1743625655.583,-41.992,-6.836,-42.480,-61.523,0.000
1743625655.587,-44.922,-24.414,-58.594,-63.477,0.000
1743625655.591,-47.852,-24.414,-57.617,-64.941,0.000
1743625655.595,-40.527,-20.508,-48.340,-63.965,0.000
1743625655.599,-38.086,-25.879,-44.922,-56.641,0.000
1743625655.603,-39.551,-27.344,-42.480,-54.199,0.000
1743625655.607,-28.809,-26.855,-38.086,-47.852,0.000
1743625655.611,-30.762,-38.574,-35.645,-45.410,0.000
1743625655.614,-34.668,-48.828,-40.039,-48.340,0.000
1743625655.618,-26.367,-29.785,-40.039,-41.016,0.000
1743625655.622,-22.461,-10.742,-32.715,-31.250,0.000
1743625655.626,-19.043,-16.113,-25.879,-26.855,0.000
1743625655.630,-20.020,-24.414,-32.227,-21.973,0.000
1743625655.634,-24.414,-26.367,-39.062,-24.414,0.000
1743625655.638,-22.949,-30.762,-34.180,-29.785,0.000
1743625655.642,-25.879,-37.109,-33.691,-34.668,0.000
1743625655.646,-30.762,-36.133,-38.086,-32.715,0.000
1743625655.650,-35.156,-31.250,-36.621,-32.715,0.000
1743625655.654,-33.691,-28.809,-34.180,-38.086,0.000
1743625655.657,-30.762,-30.762,-33.691,-37.109,0.000
1743625655.661,-25.391,-37.109,-34.668,-30.762,0.000
1743625655.665,-31.250,-32.227,-34.180,-30.273,0.000
1743625655.669,-32.715,-21.973,-35.645,-35.156,0.000
1743625655.673,-34.668,-28.320,-42.969,-33.203,0.000
1743625655.677,-34.668,-30.273,-43.457,-30.273,0.000
1743625655.681,-32.227,-21.484,-38.086,-30.762,0.000
1743625655.685,-32.227,-29.785,-36.621,-27.344,0.000
1743625655.689,-35.645,-40.527,-32.715,-18.066,0.000
1743625655.693,-41.016,-39.062,-32.715,-17.090,0.000
1743625655.696,-39.551,-32.227,-39.551,-26.367,0.000
1743625655.700,-38.574,-27.832,-36.621,-34.668,0.000
1743625655.704,-48.828,-27.832,-35.156,-34.180,0.000
1743625655.708,-46.875,-30.273,-39.551,-37.598,0.000
1743625655.712,-33.691,-36.133,-34.180,-37.598,0.000
1743625655.716,-31.250,-32.227,-34.668,-32.715,0.000
1743625655.720,0.000,-40.039,-34.668,-31.738,0.000
1743625655.724,0.000,-33.203,-32.715,-30.273,0.000
1743625655.728,0.000,-27.344,-37.109,-26.855,0.000
1743625655.732,0.000,-40.527,-29.297,-32.715,0.000
1743625655.736,0.000,-33.203,-25.879,-36.133,0.000
1743625655.739,0.000,-37.109,-25.879,-33.691,0.000
1743625655.743,0.000,-35.645,-25.391,-36.621,0.000
1743625655.747,0.000,-29.297,-33.203,-34.668,0.000
1743625655.751,0.000,-43.457,-38.086,-32.715,0.000
1743625655.755,0.000,-44.434,-37.598,-33.203,0.000
1743625655.759,0.000,-25.391,-33.203,-27.344,0.000
1743625655.763,0.000,-22.949,-32.227,-28.320,0.000
1743625655.767,-26.367,-23.926,-33.691,-29.297,0.000
1743625655.771,-32.227,-24.414,-33.203,-33.691,0.000
1743625655.775,-34.668,-20.508,-29.785,-36.621,0.000
1743625655.779,-27.832,-16.602,-30.762,-34.180,0.000
1743625655.782,-24.902,-28.320,-31.250,-33.691,0.000
1743625655.786,-31.250,-32.227,-24.414,-28.320,0.000
1743625655.790,-27.344,-33.203,-24.414,-17.578,0.000
1743625655.794,-14.648,-32.715,-29.785,-19.531,0.000
1743625655.798,-14.160,-35.156,-34.668,-32.227,0.000
1743625655.802,-22.461,-33.691,-33.203,-34.180,0.000
1743625655.806,-23.438,-27.832,-32.715,-33.691,0.000
1743625655.810,-21.484,-23.926,-30.273,-33.691,0.000
1743625655.814,0.000,-25.391,-33.203,-34.668,0.000
1743625655.818,0.000,-27.832,-37.598,-40.527,0.000
1743625655.821,0.000,-23.926,-36.621,-41.504,0.000
1743625655.825,0.000,-30.762,-39.062,-44.434,0.000
1743625655.829,0.000,-32.715,-38.574,-47.363,0.000
1743625655.833,0.000,-27.832,-36.133,-41.504,0.000
1743625655.837,0.000,-29.297,-37.109,-39.551,0.000
1743625655.841,0.000,-29.785,-36.133,-45.410,0.000
1743625655.845,0.000,-23.926,-30.762,-40.039,0.000
1743625655.849,0.000,-26.855,-31.738,-36.133,0.000
1743625655.853,0.000,-32.227,-31.738,-40.527,0.000
1743625655.857,0.000,-26.367,-31.250,-41.992,0.000
1743625655.861,-35.645,-27.344,-33.203,-41.992,0.000
1743625655.864,-38.574,-30.273,-31.250,-32.715,0.000
1743625655.868,-31.738,-31.738,-30.762,-31.738,0.000
1743625655.872,-22.949,-27.832,-30.273,-29.785,0.000
1743625655.876,-19.043,-26.367,-28.809,-22.949,0.000
1743625655.880,-22.949,-25.879,-25.879,-17.090,0.000
1743625655.884,-30.273,-29.785,-27.832,-22.461,0.000
1743625655.888,-39.062,-41.016,-29.297,-33.691,0.000
1743625655.892,-47.363,-38.086,-27.344,-36.621,0.000
1743625655.896,-46.875,-34.180,-29.785,-42.969,0.000
1743625655.900,-45.410,-30.762,-28.320,-54.688,0.000
1743625655.904,-50.781,-24.902,-22.949,-57.617,0.000
1743625655.907,-53.223,-21.484,-18.066,-66.406,0.000
1743625655.911,-75.195,-20.508,-25.391,-89.844,0.000
1743625655.915,-99.609,-15.625,-33.691,-105.957,0.000
1743625655.919,-120.117,-16.113,-39.551,-130.859,0.000
1743625655.923,-143.555,-12.207,-43.945,-158.203,0.000
1743625655.927,-173.340,-2.441,-40.039,-175.293,0.000
1743625655.931,-207.031,0.488,-46.387,-201.172,0.000
1743625655.935,-229.004,-2.441,-58.594,-229.004,0.000
1743625655.939,-250.977,4.883,-60.059,-261.230,0.000
1743625655.943,-272.461,11.719,-61.523,-289.551,0.000
1743625655.946,-281.250,8.301,-59.570,-299.316,0.000
1743625655.950,-289.551,7.812,-55.176,-306.152,0.000
1743625655.954,-291.016,10.254,-48.828,-307.617,0.000
1743625655.958,-280.273,6.836,-46.875,-302.734,0.000
1743625655.962,-267.578,2.930,-46.387,-293.457,0.000
1743625655.966,-254.883,-9.766,-49.805,-278.809,0.000
1743625655.970,-238.770,-18.066,-47.363,-263.184,0.000
