timestamps,TP9,AF7,AF8,TP10,Right AUX
1745696335.725,-27.832,-17.578,-20.996,-23.926,0.000
1745696335.729,-45.410,-35.645,-41.016,-34.668,0.000
1745696335.733,-42.480,-55.176,-53.711,-46.387,0.000
1745696335.737,-27.344,-37.598,-37.109,-36.621,0.000
1745696335.740,-20.020,2.441,-23.926,-25.391,0.000
1745696335.744,-30.762,-0.977,-28.809,-25.391,0.000
1745696335.748,-44.434,-40.527,-50.781,-38.574,0.000
1745696335.752,-38.574,-62.500,-58.594,-53.223,0.000
1745696335.756,-30.762,-41.016,-35.156,-39.062,0.000
1745696335.760,-33.203,-20.996,-19.043,-20.996,0.000
1745696335.764,-40.527,-31.250,-42.969,-37.598,0.000
1745696335.768,-41.992,-51.270,-55.664,-58.105,0.000
1745696335.772,-34.668,-39.551,-34.668,-44.922,0.000
1745696335.776,-36.133,-18.066,-23.438,-29.297,0.000
1745696335.780,-45.410,-35.156,-36.621,-39.551,0.000
1745696335.783,-43.457,-52.246,-54.688,-50.293,0.000
1745696335.787,-29.297,-29.785,-46.875,-34.668,0.000
1745696335.791,-29.297,1.465,-22.949,-20.996,0.000
1745696335.795,-41.016,-18.555,-23.926,-23.926,0.000
1745696335.799,-41.016,-57.617,-41.016,-32.715,0.000
1745696335.803,-34.180,-52.246,-42.480,-33.691,0.000
1745696335.807,-28.809,-32.715,-35.645,-17.090,0.000
1745696335.811,-36.133,-34.668,-39.062,-17.578,0.000
1745696335.815,-42.969,-46.875,-47.363,-36.133,0.000
1745696335.819,-25.879,-39.551,-42.480,-39.062,0.000
1745696335.822,-17.090,-12.695,-27.344,-21.484,0.000
1745696335.826,-29.297,-7.324,-19.531,-10.742,0.000
1745696335.830,-42.480,-43.457,-35.156,-30.762,0.000
1745696335.834,-40.527,-57.617,-55.176,-47.363,0.000
1745696335.838,-27.832,-14.648,-41.504,-26.855,0.000
1745696335.842,-27.832,14.648,-25.879,-11.719,0.000
1745696335.846,-35.156,-27.344,-32.715,-27.344,0.000
1745696335.850,-41.016,-75.684,-52.246,-43.457,0.000
1745696335.854,-34.668,-48.828,-50.293,-39.062,0.000
1745696335.858,-23.926,-7.812,-36.133,-26.855,0.000
1745696335.862,-34.668,-26.855,-32.227,-23.438,0.000
1745696335.865,-41.016,-56.641,-48.340,-39.062,0.000
1745696335.869,-20.996,-33.203,-40.527,-36.133,0.000
1745696335.873,-12.207,-4.395,-21.973,-16.602,0.000
1745696335.877,-24.902,-13.672,-23.438,-12.695,0.000
1745696335.881,-32.715,-45.410,-42.969,-30.762,0.000
1745696335.885,-27.344,-41.016,-55.664,-43.945,0.000
1745696335.889,-11.230,-13.184,-36.133,-19.531,0.000
1745696335.893,-9.277,-12.207,-22.461,-8.789,0.000
1745696335.897,-29.785,-45.898,-37.598,-30.762,0.000
1745696335.901,-34.180,-58.105,-50.293,-38.574,0.000
1745696335.905,-19.043,-18.066,-39.551,-26.367,0.000
1745696335.908,-25.879,-9.277,-25.879,-20.996,0.000
1745696335.912,-48.828,-47.363,-39.551,-44.922,0.000
1745696335.916,-38.086,-47.852,-48.828,-57.129,0.000
1745696335.920,-17.578,-9.766,-42.969,-37.109,0.000
1745696335.924,-30.273,-17.090,-41.016,-25.879,0.000
1745696335.928,-44.434,-46.387,-35.156,-36.621,0.000
1745696335.932,-38.086,-28.320,-40.527,-45.410,0.000
1745696335.936,-18.066,-12.695,-39.551,-37.109,0.000
1745696335.940,-12.695,-24.414,-20.996,-19.531,0.000
1745696335.944,-31.738,-33.203,-29.785,-24.902,0.000
1745696335.947,-32.715,-57.129,-45.410,-40.527,0.000
1745696335.951,-15.137,-46.387,-39.551,-36.621,0.000
1745696335.955,-3.418,-11.230,-34.180,-23.438,0.000
1745696335.959,-13.672,-24.902,-29.785,-24.902,0.000
1745696335.963,-34.180,-47.852,-42.480,-35.645,0.000
1745696335.967,-30.273,-29.785,-44.922,-33.203,0.000
1745696335.971,-20.020,-5.371,-25.391,-29.297,0.000
1745696335.975,-28.809,-9.766,-26.855,-29.785,0.000
1745696335.979,-49.805,-39.062,-40.039,-42.969,0.000
1745696335.983,-44.922,-50.781,-53.223,-48.828,0.000
1745696335.987,-19.043,-26.367,-44.434,-29.785,0.000
1745696335.990,-18.066,-9.277,-22.461,-12.695,0.000
1745696335.994,-37.598,-30.762,-30.273,-26.855,0.000
1745696335.998,-41.504,-58.594,-44.922,-44.922,0.000
1745696336.002,-19.531,-23.926,-35.156,-36.621,0.000
1745696336.006,-14.648,4.395,-26.367,-22.949,0.000
1745696336.010,-38.574,-36.133,-28.809,-23.926,0.000
1745696336.014,-54.199,-72.266,-45.410,-39.062,0.000
1745696336.018,-36.621,-48.340,-45.410,-36.133,0.000
1745696336.022,-22.949,-5.859,-28.320,-19.531,0.000
1745696336.026,-36.621,-2.930,-29.297,-22.461,0.000
1745696336.030,-57.129,-43.945,-51.758,-41.992,0.000
1745696336.033,-45.898,-56.152,-53.711,-45.898,0.000
1745696336.037,-21.973,-26.855,-34.668,-36.621,0.000
1745696336.041,-30.273,-27.344,-29.297,-22.949,0.000
1745696336.045,-50.293,-48.340,-41.504,-38.086,0.000
1745696336.049,-44.434,-51.758,-47.852,-55.176,0.000
1745696336.053,-18.066,-20.020,-34.180,-40.527,0.000
1745696336.057,-16.602,-10.742,-29.785,-25.879,0.000
1745696336.061,-40.039,-39.062,-40.039,-33.203,0.000
1745696336.065,-39.551,-52.734,-41.504,-38.574,0.000
1745696336.069,-20.508,-31.738,-30.273,-28.809,0.000
1745696336.072,-18.555,6.348,-24.902,-16.113,0.000
1745696336.076,-41.992,-16.602,-33.203,-21.973,0.000
1745696336.080,-56.641,-68.848,-42.480,-36.133,0.000
1745696336.084,-42.969,-52.246,-40.527,-34.180,0.000
1745696336.088,-31.250,-19.043,-23.438,-22.949,0.000
1745696336.092,-39.551,-20.996,-17.578,-20.508,0.000
1745696336.096,-59.082,-52.734,-35.156,-37.109,0.000
1745696336.100,-45.410,-51.758,-40.039,-44.434,0.000
1745696336.104,-23.926,-16.602,-26.367,-41.016,0.000
1745696336.108,-29.297,-10.742,-19.531,-28.809,0.000
1745696336.112,-39.551,-47.852,-34.668,-30.273,0.000
1745696336.115,-36.133,-65.430,-41.992,-38.086,0.000
1745696336.119,-13.184,-12.695,-28.320,-26.367,0.000
1745696336.123,-8.789,18.555,-23.926,-20.020,0.000
1745696336.127,-43.945,-46.387,-39.551,-38.574,0.000
1745696336.131,-52.246,-83.496,-51.758,-51.270,0.000
1745696336.135,-25.879,-39.551,-41.504,-37.109,0.000
1745696336.139,-23.926,-14.648,-33.691,-28.809,0.000
1745696336.143,-53.223,-47.363,-35.645,-45.898,0.000
1745696336.147,-65.430,-62.012,-44.922,-53.711,0.000
1745696336.151,-43.945,-30.762,-40.527,-43.457,0.000
1745696336.155,-35.156,-10.254,-29.297,-32.715,0.000
1745696336.158,-57.617,-33.203,-35.156,-37.109,0.000
1745696336.162,-71.777,-68.359,-42.480,-45.898,0.000
1745696336.166,-57.129,-32.227,-39.551,-44.922,0.000
1745696336.170,-41.992,2.930,-31.250,-35.645,0.000
1745696336.174,-56.641,-33.203,-36.133,-39.062,0.000
1745696336.178,-78.125,-68.359,-46.387,-55.664,0.000
1745696336.182,-66.895,-47.852,-43.457,-58.105,0.000
1745696336.186,-41.504,-12.695,-30.273,-46.875,0.000
1745696336.190,-47.852,-20.996,-28.320,-41.016,0.000
1745696336.194,-74.219,-55.664,-39.062,-49.805,0.000
1745696336.197,-72.266,-60.547,-46.387,-61.035,0.000
1745696336.201,-43.945,-19.043,-50.781,-56.641,0.000
1745696336.205,-38.574,-5.371,-32.227,-45.898,0.000
1745696336.209,-68.359,-41.504,-29.297,-57.129,0.000
1745696336.213,-78.125,-43.457,-39.062,-70.312,0.000
1745696336.217,-58.105,-21.973,-29.785,-60.059,0.000
1745696336.221,-47.363,-21.484,-20.508,-46.875,0.000
1745696336.225,-67.383,-50.781,-33.203,-49.316,0.000
1745696336.229,-79.590,-69.824,-41.504,-59.570,0.000
1745696336.233,-56.152,-37.598,-31.738,-55.664,0.000
1745696336.237,-34.180,-5.371,-23.926,-34.180,0.000
1745696336.240,-45.898,-16.113,-29.297,-27.344,0.000
1745696336.244,-70.312,-50.781,-38.574,-34.668,0.000
1745696336.248,-54.199,-48.340,-31.250,-28.809,0.000
1745696336.252,-21.484,-16.113,-23.926,-13.672,0.000
1745696336.256,-30.762,-20.020,-25.391,-15.137,0.000
1745696336.260,-60.059,-47.363,-35.645,-28.809,0.000
1745696336.264,-48.340,-51.270,-41.504,-26.855,0.000
1745696336.268,-7.812,-20.508,-21.973,-12.695,0.000
1745696336.272,-5.371,-13.184,-19.531,-11.230,0.000
1745696336.276,-33.203,-48.828,-28.809,-16.113,0.000
1745696336.280,-32.715,-60.059,-33.691,-15.625,0.000
1745696336.283,-5.859,-20.020,-27.832,-9.766,0.000
1745696336.287,2.441,5.371,-27.832,-9.766,0.000
1745696336.291,-20.508,-24.902,-38.086,-16.113,0.000
1745696336.295,-37.598,-58.105,-40.527,-26.367,0.000
1745696336.299,-21.973,-32.715,-30.762,-27.832,0.000
1745696336.303,-0.488,9.277,-17.578,-9.766,0.000
1745696336.307,-12.207,-8.301,-29.785,-11.719,0.000
1745696336.311,-36.133,-48.340,-49.805,-26.367,0.000
1745696336.315,-20.020,-56.641,-49.805,-23.926,0.000
1745696336.319,4.395,-13.672,-27.832,-11.230,0.000
1745696336.322,-9.766,-6.348,-20.508,-10.254,0.000
1745696336.326,-37.598,-48.340,-36.621,-22.461,0.000
1745696336.330,-36.621,-53.223,-41.504,-25.879,0.000
1745696336.334,-8.789,-12.695,-30.762,-23.438,0.000
1745696336.338,-0.977,-3.418,-28.320,-20.508,0.000
1745696336.342,-31.250,-41.992,-40.039,-33.203,0.000
1745696336.346,-44.922,-62.012,-44.434,-45.410,0.000
1745696336.350,-18.555,-25.879,-39.062,-39.062,0.000
1745696336.354,-9.766,13.184,-33.203,-27.832,0.000
1745696336.358,-38.574,-20.508,-36.621,-36.133,0.000
1745696336.362,-53.711,-64.453,-43.945,-45.410,0.000
1745696336.365,-35.156,-53.711,-42.969,-39.551,0.000
1745696336.369,-17.578,-10.742,-32.715,-30.273,0.000
1745696336.373,-35.156,-18.555,-31.250,-33.691,0.000
1745696336.377,-61.035,-62.012,-46.387,-46.875,0.000
1745696336.381,-42.969,-45.898,-47.852,-38.086,0.000
1745696336.385,-11.719,-8.301,-24.902,-11.230,0.000
1745696336.389,-15.625,-20.508,-22.461,-8.789,0.000
1745696336.393,-37.598,-53.711,-40.039,-24.902,0.000
1745696336.397,-40.527,-56.152,-38.574,-26.855,0.000
1745696336.401,-18.555,-4.395,-29.785,-12.207,0.000
1745696336.405,-9.277,20.020,-30.762,-4.395,0.000
1745696336.408,-30.762,-38.086,-32.715,-13.184,0.000
1745696336.412,-42.480,-71.289,-37.109,-20.996,0.000
1745696336.416,-21.973,-37.109,-39.551,-16.113,0.000
1745696336.420,-4.883,8.301,-27.344,-7.324,0.000
1745696336.424,-21.973,-20.508,-36.621,-11.230,0.000
1745696336.428,-30.273,-61.523,-55.176,-24.414,0.000
1745696336.432,-21.484,-43.945,-50.781,-20.996,0.000
1745696336.436,-13.184,-13.672,-34.668,-11.230,0.000
1745696336.440,-26.855,-15.625,-30.273,-23.438,0.000
1745696336.444,-47.852,-53.223,-42.969,-29.785,0.000
1745696336.447,-44.922,-46.875,-51.758,-33.203,0.000
1745696336.451,-20.508,-6.836,-41.016,-36.621,0.000
1745696336.455,-21.484,-29.785,-34.180,-30.273,0.000
1745696336.459,-51.270,-77.637,-39.062,-41.504,0.000
1745696336.463,-53.223,-72.754,-42.480,-46.387,0.000
1745696336.467,-27.344,-35.156,-32.715,-32.715,0.000
1745696336.471,-24.414,-19.043,-27.832,-27.344,0.000
1745696336.475,-49.316,-45.898,-40.039,-33.691,0.000
1745696336.479,-52.734,-61.523,-43.945,-32.715,0.000
1745696336.483,-25.391,-31.738,-38.574,-29.785,0.000
1745696336.487,-16.113,-21.484,-30.762,-26.367,0.000
1745696336.490,-34.668,-30.762,-32.227,-21.484,0.000
1745696336.494,-54.199,-36.133,-40.039,-24.902,0.000
1745696336.498,-44.922,-42.969,-41.016,-21.973,0.000
1745696336.502,-28.320,-41.504,-44.922,-19.043,0.000
1745696336.506,-30.273,-34.180,-35.645,-22.949,0.000
1745696336.510,-41.504,-46.387,-34.668,-26.855,0.000
1745696336.514,-44.434,-46.875,-40.039,-33.203,0.000
1745696336.518,-26.367,-22.461,-33.203,-31.250,0.000
1745696336.522,-26.855,-23.926,-36.621,-32.227,0.000
1745696336.526,-52.734,-53.711,-46.875,-40.039,0.000
1745696336.530,-50.293,-60.547,-48.340,-42.480,0.000
1745696336.533,-20.996,-30.762,-39.062,-36.133,0.000
1745696336.537,-11.230,-11.719,-30.273,-26.855,0.000
1745696336.541,-28.809,-19.531,-37.109,-29.785,0.000
1745696336.545,-43.457,-39.062,-43.945,-35.156,0.000
1745696336.549,-27.832,-44.434,-40.527,-29.297,0.000
1745696336.553,-6.836,-18.066,-34.668,-27.344,0.000
1745696336.557,-23.926,-24.902,-34.180,-33.691,0.000
1745696336.561,-51.758,-59.082,-44.434,-42.480,0.000
1745696336.565,-40.527,-38.574,-50.293,-35.645,0.000
1745696336.569,-19.531,-7.324,-31.738,-27.344,0.000
1745696336.572,-26.367,-18.066,-27.832,-32.715,0.000
1745696336.576,-44.922,-49.316,-41.992,-43.945,0.000
1745696336.580,-46.387,-47.852,-40.527,-42.480,0.000
1745696336.584,-31.250,-12.207,-34.180,-32.227,0.000
1745696336.588,-26.855,19.531,-25.879,-29.297,0.000
1745696336.592,-50.293,-21.973,-38.574,-36.133,0.000
1745696336.596,-57.617,-64.453,-45.410,-44.434,0.000
1745696336.600,-30.762,-19.531,-36.133,-41.504,0.000
1745696336.604,-20.996,-4.395,-34.180,-34.668,0.000
1745696336.608,-50.293,-47.852,-42.969,-42.969,0.000
1745696336.612,-66.406,-68.848,-51.270,-53.223,0.000
1745696336.615,-44.922,-46.387,-36.621,-48.828,0.000
1745696336.619,-27.832,-19.531,-29.785,-36.133,0.000
1745696336.623,-35.645,-22.461,-37.109,-30.762,0.000
1745696336.627,-55.176,-60.547,-40.527,-41.992,0.000
1745696336.631,-58.105,-50.293,-39.551,-45.898,0.000
1745696336.635,-32.227,10.742,-24.902,-36.133,0.000
1745696336.639,-22.949,0.488,-21.484,-36.133,0.000
1745696336.643,-46.875,-64.941,-38.086,-48.340,0.000
1745696336.647,-47.852,-63.965,-39.551,-47.363,0.000
1745696336.651,-26.367,-28.320,-37.109,-40.039,0.000
1745696336.654,-26.855,-16.602,-35.156,-35.156,0.000
1745696336.658,-50.293,-38.086,-37.598,-42.969,0.000
1745696336.662,-56.152,-51.758,-49.805,-55.664,0.000
1745696336.666,-34.180,-37.109,-40.527,-43.457,0.000
1745696336.670,-19.043,-11.719,-24.414,-29.297,0.000
1745696336.674,-37.598,-25.391,-38.574,-31.250,0.000
1745696336.678,-57.617,-56.152,-46.875,-37.109,0.000
1745696336.682,-41.504,-18.555,-37.598,-39.062,0.000
1745696336.686,-20.996,20.508,-28.320,-30.273,0.000
1745696336.690,-29.785,-20.020,-28.320,-33.203,0.000
1745696336.694,-56.152,-69.336,-45.898,-50.781,0.000
1745696336.697,-49.316,-61.035,-53.223,-46.875,0.000
1745696336.701,-15.625,-15.137,-31.738,-28.320,0.000
1745696336.705,-19.531,-14.648,-29.297,-28.320,0.000
1745696336.709,-49.316,-50.293,-37.598,-40.039,0.000
1745696336.713,-44.922,-59.082,-39.062,-36.621,0.000
1745696336.717,-19.043,-17.578,-37.109,-23.438,0.000
1745696336.721,-16.113,13.672,-31.738,-24.902,0.000
1745696336.725,-39.062,-34.668,-35.156,-38.086,0.000
1745696336.729,-51.758,-52.734,-42.969,-45.898,0.000
1745696336.733,-28.320,-18.066,-37.109,-37.598,0.000
1745696336.737,-13.672,-5.371,-28.320,-28.809,0.000
1745696336.740,-36.621,-36.133,-39.551,-34.668,0.000
1745696336.744,-55.176,-68.359,-55.176,-45.410,0.000
1745696336.748,-34.180,-44.434,-41.504,-35.645,0.000
1745696336.752,-14.160,-5.859,-25.391,-20.020,0.000
1745696336.756,-28.320,-6.836,-34.180,-23.438,0.000
1745696336.760,-51.758,-49.805,-48.340,-40.039,0.000
1745696336.764,-42.969,-51.270,-47.363,-41.504,0.000
1745696336.768,-12.695,-12.695,-31.738,-36.133,0.000
1745696336.772,-19.043,-16.113,-32.227,-44.434,0.000
1745696336.776,-48.340,-43.457,-43.457,-48.828,0.000
1745696336.779,-46.387,-40.527,-40.039,-51.270,0.000
1745696336.783,-14.648,-12.207,-32.715,-37.598,0.000
1745696336.787,-6.348,-4.395,-28.320,-25.391,0.000
1745696336.791,-40.039,-41.992,-34.668,-38.086,0.000
1745696336.795,-58.594,-68.848,-48.340,-48.340,0.000
1745696336.799,-34.668,-38.574,-41.504,-39.062,0.000
1745696336.803,-11.719,-4.395,-27.832,-29.785,0.000
1745696336.807,-26.367,-20.508,-36.621,-37.109,0.000
1745696336.811,-50.781,-53.223,-51.270,-49.316,0.000
1745696336.815,-33.203,-42.480,-42.480,-44.434,0.000
1745696336.819,1.465,-11.230,-30.762,-33.203,0.000
1745696336.822,-10.742,5.371,-33.691,-34.668,0.000
1745696336.826,-42.480,-30.273,-42.480,-38.086,0.000
1745696336.830,-40.527,-58.105,-52.734,-31.250,0.000
1745696336.834,-13.672,-20.508,-33.691,-19.043,0.000
1745696336.838,-13.672,-1.465,-18.555,-20.508,0.000
1745696336.842,-43.945,-39.062,-39.551,-30.273,0.000
1745696336.846,-53.223,-66.406,-50.293,-36.621,0.000
1745696336.850,-28.320,-25.879,-32.227,-30.273,0.000
1745696336.854,-16.113,-7.812,-20.508,-21.484,0.000
1745696336.858,-35.645,-38.086,-32.715,-26.855,0.000
1745696336.862,-51.270,-65.918,-44.922,-34.668,0.000
1745696336.865,-25.391,-45.410,-30.273,-27.344,0.000
1745696336.869,-2.441,13.672,-18.555,-13.672,0.000
1745696336.873,-31.250,-8.301,-28.809,-20.996,0.000
1745696336.877,-60.547,-73.730,-47.363,-37.598,0.000
1745696336.881,-36.133,-52.734,-52.734,-25.879,0.000
1745696336.885,-7.812,-1.465,-33.691,-11.230,0.000
1745696336.889,-21.973,-11.719,-24.414,-25.879,0.000
1745696336.893,-49.805,-53.223,-38.086,-39.551,0.000
1745696336.897,-45.410,-42.969,-32.227,-37.598,0.000
1745696336.901,-16.113,1.465,-17.578,-26.855,0.000
1745696336.904,-11.719,-4.395,-24.902,-25.879,0.000
1745696336.908,-38.574,-41.992,-36.621,-42.969,0.000
1745696336.912,-48.340,-51.270,-39.062,-51.758,0.000
1745696336.916,-28.320,-11.719,-27.344,-37.598,0.000
1745696336.920,-18.066,-1.465,-20.508,-27.344,0.000
1745696336.924,-38.086,-39.062,-30.273,-37.109,0.000
1745696336.928,-60.547,-60.547,-41.992,-43.945,0.000
1745696336.932,-43.457,-35.645,-38.574,-35.645,0.000
1745696336.936,-17.090,4.395,-25.879,-21.973,0.000
1745696336.940,-30.762,-18.066,-37.598,-27.832,0.000
1745696336.944,-54.688,-60.059,-49.805,-38.574,0.000
1745696336.947,-41.992,-51.758,-44.434,-30.762,0.000
1745696336.951,-9.277,-11.719,-32.227,-12.695,0.000
1745696336.955,-16.602,-12.695,-30.762,-19.531,0.000
1745696336.959,-46.387,-45.410,-43.945,-38.574,0.000
1745696336.963,-41.992,-33.691,-45.410,-39.551,0.000
1745696336.967,-20.508,-8.301,-39.551,-26.367,0.000
1745696336.971,-16.113,-19.043,-33.691,-23.438,0.000
1745696336.975,-42.480,-52.246,-43.457,-33.691,0.000
1745696336.979,-62.988,-75.684,-54.199,-46.387,0.000
1745696336.983,-39.551,-36.621,-44.434,-40.527,0.000
1745696336.987,-21.484,-6.836,-36.133,-29.297,0.000
1745696336.990,-39.551,-39.551,-38.086,-37.109,0.000
1745696336.994,-57.617,-66.406,-42.480,-44.434,0.000
1745696336.998,-36.621,-43.945,-44.434,-32.227,0.000
1745696337.002,-13.184,-11.719,-42.969,-22.949,0.000
1745696337.006,-32.227,-19.531,-36.621,-26.367,0.000
1745696337.010,-59.082,-45.410,-40.527,-38.574,0.000
1745696337.014,-49.805,-41.504,-46.387,-39.551,0.000
1745696337.018,-21.973,-10.254,-35.645,-23.438,0.000
1745696337.022,-25.879,-16.113,-32.227,-23.438,0.000
1745696337.026,-55.176,-63.477,-48.828,-39.062,0.000
1745696337.029,-49.805,-69.824,-49.316,-47.363,0.000
1745696337.033,-20.508,-27.832,-35.645,-40.039,0.000
1745696337.037,-20.996,-10.254,-37.109,-31.738,0.000
1745696337.041,-46.387,-43.457,-47.852,-43.457,0.000
1745696337.045,-56.641,-67.383,-49.316,-43.945,0.000
1745696337.049,-32.227,-30.762,-32.715,-21.484,0.000
1745696337.053,-10.254,-1.953,-22.461,-18.066,0.000
1745696337.057,-30.273,-19.531,-31.738,-32.227,0.000
1745696337.061,-53.223,-34.180,-40.527,-39.062,0.000
1745696337.065,-29.785,-34.180,-35.156,-31.250,0.000
1745696337.069,-6.836,-21.484,-26.367,-16.113,0.000
1745696337.072,-22.461,-34.668,-27.832,-18.066,0.000
1745696337.076,-46.387,-57.129,-41.992,-33.203,0.000
1745696337.080,-36.133,-44.434,-37.109,-32.715,0.000
1745696337.084,-0.977,-11.719,-16.113,-18.066,0.000
1745696337.088,-6.836,-10.742,-18.066,-24.902,0.000
1745696337.092,-42.969,-50.293,-41.992,-39.551,0.000
1745696337.096,-50.293,-67.871,-42.969,-41.504,0.000
1745696337.100,-21.973,-30.273,-26.367,-30.762,0.000
1745696337.104,-5.371,13.184,-25.391,-28.320,0.000
1745696337.108,-37.598,-20.996,-41.016,-45.410,0.000
1745696337.112,-65.918,-76.660,-49.805,-52.734,0.000
1745696337.115,-43.457,-56.641,-41.504,-35.156,0.000
1745696337.119,-19.531,-13.672,-32.715,-23.926,0.000
1745696337.123,-34.668,-29.785,-36.621,-33.203,0.000
1745696337.127,-58.105,-69.824,-47.852,-45.410,0.000
1745696337.131,-41.504,-52.246,-43.945,-39.062,0.000
1745696337.135,-8.789,-0.488,-28.320,-21.484,0.000
1745696337.139,-21.973,-7.324,-23.438,-21.973,0.000
1745696337.143,-56.152,-69.824,-41.016,-41.016,0.000
1745696337.147,-48.828,-67.383,-46.387,-41.992,0.000
1745696337.151,-16.113,4.883,-36.133,-25.391,0.000
1745696337.154,-13.184,3.418,-31.738,-23.438,0.000
1745696337.158,-40.039,-58.105,-43.945,-29.785,0.000
1745696337.162,-48.340,-66.406,-54.199,-28.320,0.000
1745696337.166,-18.066,-21.973,-36.621,-19.043,0.000
1745696337.170,0.000,-1.465,-25.391,-18.066,0.000
1745696337.174,-28.320,-31.250,-36.133,-31.738,0.000
1745696337.178,-54.688,-64.453,-45.898,-43.945,0.000
1745696337.182,-31.738,-38.086,-34.668,-41.016,0.000
1745696337.186,-8.789,0.488,-22.949,-24.414,0.000
1745696337.190,-25.391,-23.438,-29.297,-31.738,0.000
1745696337.194,-52.246,-68.359,-53.223,-57.617,0.000
1745696337.197,-44.434,-41.992,-52.734,-55.176,0.000
1745696337.201,-14.160,10.254,-24.902,-34.668,0.000
1745696337.205,-21.484,-17.578,-25.879,-27.344,0.000
1745696337.209,-50.293,-72.754,-44.922,-38.086,0.000
1745696337.213,-50.293,-73.242,-54.199,-37.598,0.000
1745696337.217,-18.555,-22.461,-38.086,-21.973,0.000
1745696337.221,-8.789,-10.254,-31.250,-25.391,0.000
1745696337.225,-43.457,-53.711,-48.828,-46.387,0.000
1745696337.229,-52.734,-65.918,-49.316,-46.387,0.000
1745696337.233,-28.809,-26.367,-35.645,-33.203,0.000
1745696337.237,-16.602,-1.465,-34.180,-24.902,0.000
1745696337.240,-36.621,-29.785,-45.898,-32.227,0.000
1745696337.244,-60.547,-45.410,-46.875,-43.945,0.000
1745696337.248,-42.480,-22.949,-36.621,-36.133,0.000
1745696337.252,-11.230,-10.742,-27.832,-18.555,0.000
1745696337.256,-27.832,-26.855,-35.156,-21.484,0.000
1745696337.260,-60.059,-67.871,-53.223,-37.598,0.000
1745696337.264,-45.898,-59.570,-42.969,-37.598,0.000
1745696337.268,-17.578,-15.137,-24.414,-23.438,0.000
1745696337.272,-22.461,-8.789,-29.785,-24.902,0.000
1745696337.276,-49.316,-55.664,-45.410,-38.086,0.000
1745696337.279,-48.828,-65.430,-41.016,-43.945,0.000
1745696337.283,-18.066,-15.625,-23.926,-29.785,0.000
1745696337.287,-18.066,-4.883,-19.043,-17.090,0.000
1745696337.291,-46.387,-33.203,-27.832,-25.879,0.000
1745696337.295,-57.129,-64.453,-39.062,-37.598,0.000
1745696337.299,-34.668,-43.457,-32.715,-30.762,0.000
1745696337.303,-18.066,-5.371,-17.090,-19.043,0.000
1745696337.307,-38.574,-36.621,-24.902,-30.762,0.000
1745696337.311,-63.965,-80.078,-42.480,-43.457,0.000
1745696337.315,-41.016,-40.527,-44.434,-28.809,0.000
1745696337.319,-11.230,12.207,-26.855,-7.324,0.000
1745696337.322,-22.949,-20.996,-22.461,-13.672,0.000
1745696337.326,-45.898,-72.266,-49.316,-38.086,0.000
1745696337.330,-38.574,-64.453,-43.945,-33.203,0.000
1745696337.334,-7.812,-19.531,-19.043,-19.043,0.000
1745696337.338,-14.648,1.953,-20.508,-30.273,0.000
1745696337.342,-49.805,-41.992,-35.645,-43.945,0.000
1745696337.346,-54.688,-80.566,-43.457,-43.945,0.000
1745696337.350,-26.367,-45.898,-25.879,-25.391,0.000
1745696337.354,-10.254,-12.207,-19.043,-7.812,0.000
1745696337.358,-37.598,-46.875,-37.109,-25.391,0.000
1745696337.362,-68.359,-76.660,-51.758,-50.781,0.000
1745696337.365,-48.340,-28.809,-43.945,-42.969,0.000
1745696337.369,-26.367,1.465,-37.109,-38.086,0.000
1745696337.373,-45.410,-24.902,-49.805,-61.523,0.000
1745696337.377,-69.336,-58.105,-64.453,-79.590,0.000
1745696337.381,-59.082,-44.922,-59.082,-74.219,0.000
1745696337.385,-26.855,4.395,-30.762,-51.270,0.000
1745696337.389,-36.133,-7.812,-33.691,-50.781,0.000
1745696337.393,-80.566,-63.477,-55.176,-77.148,0.000
1745696337.397,-75.684,-58.594,-46.387,-73.730,0.000
1745696337.401,-37.109,-16.602,-36.133,-46.387,0.000
1745696337.404,-37.109,-12.207,-32.715,-45.410,0.000
1745696337.408,-62.988,-46.875,-42.480,-53.711,0.000
1745696337.412,-66.406,-63.965,-53.223,-55.176,0.000
1745696337.416,-34.668,-23.438,-33.691,-48.828,0.000
1745696337.420,-15.625,8.789,-20.020,-29.785,0.000
1745696337.424,-38.086,-29.297,-30.762,-36.621,0.000
1745696337.428,-54.199,-62.988,-43.945,-52.246,0.000
1745696337.432,-32.227,-8.301,-35.156,-40.527,0.000
1745696337.436,-9.766,27.344,-27.344,-22.949,0.000
1745696337.440,-27.832,-25.879,-46.387,-31.250,0.000
1745696337.444,-53.223,-77.637,-56.152,-48.340,0.000
1745696337.447,-41.992,-63.477,-46.875,-42.480,0.000
1745696337.451,-8.301,-4.883,-23.926,-22.461,0.000
1745696337.455,-10.742,-5.859,-21.484,-25.879,0.000
1745696337.459,-44.922,-61.035,-52.246,-45.898,0.000
1745696337.463,-47.363,-64.453,-52.246,-47.363,0.000
1745696337.467,-18.555,-12.207,-31.738,-28.809,0.000
1745696337.471,-11.719,0.488,-27.832,-23.926,0.000
1745696337.475,-41.504,-48.828,-41.504,-43.457,0.000
1745696337.479,-46.387,-42.969,-42.480,-51.270,0.000
1745696337.483,-15.625,-4.395,-27.832,-36.621,0.000
1745696337.487,-3.418,-0.977,-18.066,-25.879,0.000
1745696337.490,-37.109,-36.621,-32.227,-41.504,0.000
1745696337.494,-63.477,-58.594,-49.316,-55.176,0.000
1745696337.498,-39.551,-30.762,-41.016,-42.480,0.000
1745696337.502,-16.602,-6.348,-25.391,-28.809,0.000
1745696337.506,-25.879,-21.973,-26.855,-31.250,0.000
1745696337.510,-50.781,-59.570,-45.898,-42.969,0.000
1745696337.514,-41.016,-49.805,-41.992,-36.621,0.000
1745696337.518,-9.766,-6.836,-21.973,-22.949,0.000
1745696337.522,-20.508,-10.254,-35.156,-36.133,0.000
1745696337.526,-53.223,-40.527,-52.734,-46.875,0.000
1745696337.529,-48.340,-45.410,-45.410,-35.156,0.000
1745696337.533,-20.508,-29.297,-37.598,-24.414,0.000
1745696337.537,-14.648,-22.461,-31.738,-25.879,0.000
1745696337.541,-43.457,-54.199,-48.340,-40.039,0.000
1745696337.545,-60.059,-70.801,-55.664,-50.293,0.000
1745696337.549,-30.273,-30.273,-38.574,-30.273,0.000
1745696337.553,-6.348,2.441,-35.645,-16.602,0.000
1745696337.557,-25.391,-18.555,-38.086,-29.785,0.000
1745696337.561,-51.270,-70.312,-45.410,-39.062,0.000
1745696337.565,-26.367,-47.363,-44.922,-26.367,0.000
1745696337.569,6.836,6.348,-31.738,-10.254,0.000
1745696337.572,-9.766,7.324,-32.227,-20.508,0.000
1745696337.576,-40.527,-51.270,-46.875,-37.598,0.000
1745696337.580,-41.992,-67.871,-51.270,-34.180,0.000
1745696337.584,-15.137,-3.418,-30.273,-26.855,0.000
1745696337.588,-13.672,4.883,-29.297,-33.691,0.000
1745696337.592,-51.270,-51.758,-52.246,-52.734,0.000
1745696337.596,-61.523,-65.918,-58.594,-56.641,0.000
1745696337.600,-34.668,-25.391,-42.480,-39.551,0.000
1745696337.604,-22.461,-2.930,-32.227,-26.367,0.000
1745696337.608,-40.527,-34.180,-44.434,-34.668,0.000
1745696337.612,-57.129,-71.777,-54.688,-45.898,0.000
1745696337.615,-33.203,-28.809,-47.852,-40.039,0.000
1745696337.619,-11.719,21.484,-30.762,-26.367,0.000
1745696337.623,-36.621,-17.090,-31.250,-29.785,0.000
1745696337.627,-55.664,-76.660,-45.898,-38.086,0.000
1745696337.631,-41.504,-56.641,-41.016,-31.738,0.000
1745696337.635,-14.160,-12.207,-26.367,-16.602,0.000
1745696337.639,-18.066,-9.766,-26.855,-19.531,0.000
1745696337.643,-42.969,-45.410,-41.016,-29.785,0.000
1745696337.647,-40.039,-55.664,-41.504,-24.902,0.000
1745696337.651,-12.695,-17.090,-33.203,-21.973,0.000
1745696337.654,-9.766,-1.465,-33.203,-33.691,0.000
1745696337.658,-30.273,-36.133,-35.645,-34.668,0.000
1745696337.662,-34.668,-58.105,-38.086,-31.738,0.000
1745696337.666,-15.137,-7.812,-34.668,-35.645,0.000
1745696337.670,-6.348,23.438,-32.227,-34.180,0.000
1745696337.674,-24.902,-11.230,-38.574,-41.992,0.000
1745696337.678,-40.039,-56.152,-54.688,-57.129,0.000
1745696337.682,-20.996,-49.805,-46.875,-56.641,0.000
1745696337.686,-4.395,-11.230,-27.832,-38.574,0.000
1745696337.690,-15.137,-20.020,-30.762,-36.133,0.000
1745696337.694,-37.598,-47.852,-51.758,-49.316,0.000
1745696337.697,-29.297,-43.945,-45.410,-43.457,0.000
1745696337.701,-3.906,-10.742,-30.273,-29.297,0.000
1745696337.705,-11.230,-1.953,-30.762,-25.879,0.000
1745696337.709,-38.574,-45.898,-42.480,-36.133,0.000
1745696337.713,-38.086,-51.758,-46.875,-39.062,0.000
1745696337.717,-16.113,-11.719,-33.691,-29.297,0.000
1745696337.721,-13.184,-17.578,-30.273,-20.020,0.000
1745696337.725,-34.180,-58.594,-40.527,-24.414,0.000
1745696337.729,-47.363,-78.613,-45.898,-32.715,0.000
1745696337.733,-23.926,-38.086,-36.133,-27.832,0.000
1745696337.736,-8.301,2.441,-25.879,-15.625,0.000
1745696337.740,-28.809,-24.414,-39.062,-22.461,0.000
1745696337.744,-51.758,-57.617,-55.176,-34.180,0.000
1745696337.748,-38.574,-37.598,-41.504,-26.367,0.000
1745696337.752,-17.090,-6.836,-28.809,-11.719,0.000
1745696337.756,-28.320,-17.578,-29.785,-18.066,0.000
1745696337.760,-52.246,-35.156,-35.645,-29.297,0.000
1745696337.764,-44.434,-42.480,-38.574,-27.344,0.000
1745696337.768,-16.113,-22.461,-23.926,-16.113,0.000
1745696337.772,-16.602,-6.836,-24.414,-19.531,0.000
1745696337.776,-43.457,-46.875,-41.992,-41.016,0.000
1745696337.779,-45.898,-56.152,-43.457,-44.434,0.000
1745696337.783,-21.484,-11.230,-32.715,-27.832,0.000
1745696337.787,-15.137,2.441,-27.832,-16.602,0.000
1745696337.791,-41.504,-34.180,-41.992,-27.344,0.000
1745696337.795,-53.223,-47.363,-53.223,-41.992,0.000
1745696337.799,-30.273,-26.855,-36.133,-37.109,0.000
1745696337.803,-9.766,-4.883,-21.484,-24.414,0.000
1745696337.807,-26.855,-4.395,-33.691,-27.832,0.000
1745696337.811,-49.316,-47.363,-44.434,-41.992,0.000
1745696337.815,-33.691,-52.246,-37.109,-38.574,0.000
1745696337.819,-5.859,-7.812,-21.973,-24.414,0.000
1745696337.822,-14.160,-13.184,-23.926,-24.902,0.000
1745696337.826,-47.363,-57.617,-45.410,-41.016,0.000
1745696337.830,-44.434,-56.152,-46.875,-42.480,0.000
1745696337.834,-14.160,-20.996,-30.273,-26.855,0.000
1745696337.838,-20.996,-15.625,-25.879,-25.391,0.000
1745696337.842,-53.711,-58.105,-45.898,-43.945,0.000
1745696337.846,-48.340,-73.242,-48.828,-47.363,0.000
1745696337.850,-17.090,-24.902,-28.320,-36.133,0.000
1745696337.854,-12.695,20.508,-21.484,-30.273,0.000
1745696337.858,-38.574,-14.160,-33.203,-37.109,0.000
1745696337.861,-60.547,-64.453,-41.992,-48.828,0.000
1745696337.865,-42.969,-46.875,-41.504,-41.016,0.000
1745696337.869,-16.113,-10.254,-29.785,-28.809,0.000
1745696337.873,-34.668,-26.367,-32.227,-39.551,0.000
1745696337.877,-58.594,-66.895,-48.340,-47.852,0.000
1745696337.881,-37.109,-45.410,-34.180,-34.180,0.000
1745696337.885,-10.254,6.836,-15.625,-15.137,0.000
1745696337.889,-23.926,-11.719,-26.855,-15.137,0.000
1745696337.893,-55.664,-66.895,-47.363,-25.879,0.000
1745696337.897,-49.805,-61.523,-46.387,-21.973,0.000
1745696337.901,-16.602,3.418,-29.297,-11.230,0.000
1745696337.904,-12.695,8.789,-26.367,-15.137,0.000
1745696337.908,-54.199,-55.176,-45.898,-30.762,0.000
1745696337.912,-63.965,-64.453,-54.688,-29.297,0.000
1745696337.916,-23.926,-22.461,-45.898,-14.648,0.000
1745696337.920,-12.207,-7.812,-32.715,-14.160,0.000
1745696337.924,-29.785,-28.809,-34.668,-29.297,0.000
1745696337.928,-40.039,-56.641,-46.387,-33.691,0.000
1745696337.932,-23.438,-45.410,-45.410,-20.996,0.000
1745696337.936,-8.789,-12.207,-41.504,-14.160,0.000
1745696337.940,-20.996,-13.672,-35.156,-29.785,0.000
1745696337.944,-37.109,-49.805,-43.945,-44.922,0.000
1745696337.947,-30.273,-31.738,-54.688,-51.758,0.000
1745696337.951,-10.742,8.301,-27.344,-40.527,0.000
1745696337.955,-11.230,-6.836,-22.461,-35.156,0.000
1745696337.959,-16.602,0.488,-16.602,-22.461,0.000
1745696337.963,-26.367,-17.090,-20.020,-22.461,0.000
1745696337.967,-61.523,-105.469,-66.895,-65.918,0.000
1745696337.971,-60.547,-94.727,-63.965,-61.523,0.000
1745696337.975,-17.090,30.762,-9.766,-3.418,0.000
1745696337.979,-11.719,39.551,-2.441,0.488,0.000
1745696337.983,-48.828,-69.336,-49.805,-38.574,0.000
1745696337.986,-44.922,-79.102,-55.176,-32.227,0.000
1745696337.990,-24.414,-20.020,-24.902,-5.859,0.000
1745696337.994,-34.180,-6.836,-19.531,-7.324,0.000
1745696337.998,-39.551,-35.156,-40.039,-31.738,0.000
1745696338.002,-27.344,-49.805,-50.781,-35.156,0.000
1745696338.006,-22.461,-27.344,-40.527,-26.367,0.000
1745696338.010,-31.738,-21.973,-26.367,-25.391,0.000
1745696338.014,-41.016,-39.062,-40.527,-35.645,0.000
1745696338.018,-34.668,-39.551,-53.223,-42.969,0.000
1745696338.022,-22.461,-17.090,-36.621,-33.691,0.000
1745696338.026,-29.297,-22.461,-29.297,-31.738,0.000
1745696338.029,-38.574,-47.852,-41.504,-39.551,0.000
1745696338.033,-35.156,-38.574,-46.875,-43.457,0.000
1745696338.037,-32.715,-22.461,-39.551,-44.434,0.000
1745696338.041,-41.992,-12.207,-38.574,-44.434,0.000
1745696338.045,-47.852,-36.621,-41.504,-43.945,0.000
1745696338.049,-33.691,-59.082,-44.434,-41.504,0.000
1745696338.053,-21.484,-34.180,-40.527,-40.039,0.000
1745696338.057,-26.855,-32.227,-41.504,-42.480,0.000
1745696338.061,-44.922,-49.805,-46.387,-43.457,0.000
1745696338.065,-45.898,-45.898,-44.922,-53.223,0.000
1745696338.069,-29.297,-21.973,-37.598,-49.805,0.000
1745696338.072,-33.691,-26.367,-33.203,-35.645,0.000
1745696338.076,-53.223,-41.504,-47.852,-45.410,0.000
1745696338.080,-54.199,-38.574,-56.641,-55.176,0.000
1745696338.084,-41.016,-39.062,-45.410,-47.852,0.000
1745696338.088,-41.016,-20.996,-30.273,-32.715,0.000
1745696338.092,-57.617,-28.809,-30.762,-28.320,0.000
1745696338.096,-65.430,-65.430,-43.457,-38.574,0.000
1745696338.100,-48.340,-53.711,-42.969,-41.016,0.000
1745696338.104,-38.574,-29.785,-36.621,-32.715,0.000
1745696338.108,-49.805,-40.527,-31.738,-25.879,0.000
1745696338.111,-62.012,-57.617,-37.109,-34.668,0.000
1745696338.115,-45.410,-38.574,-42.969,-43.945,0.000
1745696338.119,-23.926,-9.766,-36.621,-39.062,0.000
1745696338.123,-36.133,-14.648,-24.902,-41.504,0.000
1745696338.127,-58.594,-48.828,-37.109,-54.688,0.000
1745696338.131,-50.781,-47.363,-46.387,-53.223,0.000
1745696338.135,-27.344,3.906,-32.227,-42.969,0.000
1745696338.139,-26.367,-4.883,-35.645,-43.945,0.000
1745696338.143,-48.340,-53.223,-44.434,-49.805,0.000
1745696338.147,-44.434,-59.570,-45.410,-52.734,0.000
1745696338.151,-17.090,-16.113,-41.992,-44.922,0.000
1745696338.154,-13.672,0.977,-35.156,-38.574,0.000
1745696338.158,-41.504,-37.598,-42.969,-45.410,0.000
1745696338.162,-51.270,-49.316,-63.477,-43.457,0.000
1745696338.166,-21.484,-31.738,-55.176,-33.691,0.000
1745696338.170,1.465,-4.883,-32.227,-21.973,0.000
1745696338.174,-20.020,-15.137,-39.062,-25.879,0.000
1745696338.178,-33.203,-32.715,-48.828,-36.133,0.000
1745696338.182,-14.648,0.000,-35.645,-30.762,0.000
1745696338.186,-4.883,6.348,-32.715,-19.531,0.000
1745696338.190,-26.367,-31.738,-42.969,-24.414,0.000
1745696338.194,-51.270,-55.664,-50.781,-36.133,0.000
1745696338.197,-41.016,-44.434,-45.898,-32.227,0.000
1745696338.201,-13.672,-5.859,-36.133,-25.879,0.000
1745696338.205,-15.137,-6.348,-31.250,-38.086,0.000
1745696338.209,-44.434,-46.387,-38.086,-49.805,0.000
1745696338.213,-48.340,-45.898,-41.016,-54.199,0.000
1745696338.217,-26.367,-29.785,-33.203,-58.105,0.000
1745696338.221,-27.344,-18.066,-30.273,-53.223,0.000
1745696338.225,-54.199,-42.969,-36.133,-51.270,0.000
1745696338.229,-59.570,-45.898,-42.969,-53.711,0.000
1745696338.233,-35.645,-17.090,-41.016,-50.293,0.000
1745696338.236,-23.926,-11.719,-28.809,-42.480,0.000
1745696338.240,-48.828,-31.738,-31.738,-48.340,0.000
1745696338.244,-63.477,-52.734,-42.969,-46.387,0.000
1745696338.248,-44.922,-43.945,-47.363,-43.945,0.000
1745696338.252,-26.367,-18.555,-33.203,-41.016,0.000
1745696338.256,-20.996,8.301,-16.602,-23.926,0.000
1745696338.260,-21.484,22.461,-9.766,-13.184,0.000
1745696338.264,-37.598,-29.297,-33.203,-35.156,0.000
1745696338.268,-58.105,-99.121,-69.336,-63.477,0.000
1745696338.272,-41.992,-48.340,-53.223,-42.969,0.000
1745696338.276,-6.348,55.664,-4.395,8.301,0.000
1745696338.279,-18.066,29.785,-9.277,4.395,0.000
1745696338.283,-61.523,-104.980,-70.801,-61.523,0.000
1745696338.287,-59.082,-124.023,-77.637,-63.477,0.000
1745696338.291,-12.207,3.418,-14.160,-2.441,0.000
1745696338.295,-1.953,40.527,3.906,8.789,0.000
1745696338.299,-41.504,-66.406,-54.688,-46.875,0.000
1745696338.303,-56.641,-110.352,-80.566,-73.242,0.000
1745696338.307,-22.949,-15.625,-24.902,-22.461,0.000
1745696338.311,-1.465,42.480,11.230,0.977,0.000
1745696338.315,-36.133,-40.527,-35.156,-50.781,0.000
1745696338.319,-68.848,-119.629,-75.195,-84.961,0.000
1745696338.322,-41.504,-36.133,-31.738,-44.922,0.000
1745696338.326,-3.418,70.312,20.020,11.230,0.000
1745696338.330,-31.250,-0.977,-14.160,-12.695,0.000
1745696338.334,-78.613,-110.840,-67.871,-70.801,0.000
1745696338.338,-64.941,-83.984,-52.246,-58.105,0.000
1745696338.342,-20.020,28.809,2.441,0.488,0.000
1745696338.346,-22.949,26.367,-0.488,-2.930,0.000
1745696338.350,-65.918,-86.914,-60.059,-59.082,0.000
1745696338.354,-62.988,-106.445,-64.941,-61.035,0.000
1745696338.358,-15.137,11.719,-3.906,3.906,0.000
1745696338.361,-3.906,52.734,11.230,20.508,0.000
1745696338.365,-46.875,-60.547,-47.852,-40.527,0.000
1745696338.369,-62.012,-99.609,-72.266,-70.312,0.000
1745696338.373,-16.602,0.000,-21.973,-26.855,0.000
1745696338.377,11.230,41.504,8.789,1.953,0.000
1745696338.381,-28.320,-41.992,-36.621,-35.156,0.000
1745696338.385,-65.918,-124.512,-80.566,-72.754,0.000
1745696338.389,-38.086,-64.453,-42.969,-33.203,0.000
1745696338.393,4.883,52.734,11.719,16.113,0.000
1745696338.397,-14.648,9.766,-11.719,-12.695,0.000
1745696338.401,-63.965,-112.793,-64.941,-72.754,0.000
1745696338.404,-65.430,-96.191,-45.898,-61.523,0.000
1745696338.408,-21.484,24.902,10.742,9.277,0.000
1745696338.412,-25.879,33.691,16.113,10.254,0.000
1745696338.416,-83.008,-70.312,-41.992,-57.617,0.000
1745696338.420,-100.098,-106.445,-57.617,-78.613,0.000
1745696338.424,-53.711,-17.578,-0.977,-25.391,0.000
1745696338.428,-31.250,33.203,21.484,4.395,0.000
1745696338.432,-82.031,-75.684,-28.809,-55.664,0.000
1745696338.436,-108.887,-144.531,-65.918,-90.820,0.000
1745696338.440,-64.941,-49.316,-18.555,-37.598,0.000
1745696338.444,-28.320,29.785,24.414,3.906,0.000
1745696338.447,-56.152,-42.969,-17.090,-31.250,0.000
1745696338.451,-88.379,-118.164,-69.336,-73.242,0.000
1745696338.455,-62.500,-71.289,-40.039,-44.434,0.000
1745696338.459,-13.184,26.855,21.484,14.160,0.000
1745696338.463,-26.855,17.090,2.441,-0.488,0.000
1745696338.467,-81.055,-107.910,-64.941,-67.383,0.000
1745696338.471,-80.078,-115.234,-64.453,-64.941,0.000
1745696338.475,-24.414,11.230,-0.488,-0.488,0.000
1745696338.479,-11.719,32.227,12.207,9.766,0.000
1745696338.483,-62.012,-81.543,-51.270,-44.922,0.000
1745696338.486,-75.195,-126.465,-72.754,-62.012,0.000
1745696338.490,-25.879,-14.648,-16.602,-3.418,0.000
1745696338.494,-2.441,46.387,20.508,26.367,0.000
1745696338.498,-44.434,-57.617,-28.809,-28.320,0.000
1745696338.502,-68.359,-139.160,-65.918,-59.082,0.000
1745696338.506,-26.367,-40.527,-20.996,-10.742,0.000
1745696338.510,13.184,73.242,26.367,32.715,0.000
1745696338.514,-13.672,10.254,-8.789,-7.812,0.000
1745696338.518,-62.012,-119.629,-67.871,-71.777,0.000
1745696338.522,-40.527,-86.426,-44.434,-47.852,0.000
1745696338.526,8.789,42.969,19.043,12.695,0.000
1745696338.529,-10.742,17.578,0.977,-5.859,0.000
1745696338.533,-63.477,-103.027,-68.359,-70.312,0.000
1745696338.537,-64.453,-99.609,-66.406,-70.312,0.000
1745696338.541,-16.113,21.973,-1.953,-3.418,0.000
1745696338.545,-1.953,48.828,7.324,9.766,0.000
1745696338.549,-43.945,-65.430,-54.199,-51.758,0.000
1745696338.553,-62.988,-112.305,-73.242,-68.848,0.000
1745696338.557,-19.531,12.207,-19.043,-12.695,0.000
1745696338.561,9.766,82.520,14.160,13.672,0.000
1745696338.565,-34.180,-41.016,-38.086,-41.992,0.000
1745696338.569,-68.359,-123.047,-77.148,-85.938,0.000
1745696338.572,-33.691,-32.715,-27.832,-41.016,0.000
1745696338.576,2.441,51.758,18.555,8.789,0.000
1745696338.580,-22.949,-10.742,-21.484,-18.066,0.000
1745696338.584,-69.336,-102.051,-78.613,-64.453,0.000
1745696338.588,-56.152,-76.172,-58.594,-52.734,0.000
1745696338.592,-1.465,37.598,6.836,5.371,0.000
1745696338.596,-4.883,39.062,3.418,-4.395,0.000
1745696338.600,-57.617,-91.309,-69.336,-78.125,0.000
1745696338.604,-64.941,-96.680,-76.660,-84.961,0.000
1745696338.608,-14.648,29.297,-8.789,-13.672,0.000
1745696338.611,1.465,38.574,7.324,4.395,0.000
1745696338.615,-48.340,-85.449,-56.152,-62.500,0.000
1745696338.619,-70.801,-129.395,-94.727,-91.309,0.000
1745696338.623,-24.902,-17.578,-30.762,-25.391,0.000
1745696338.627,7.324,65.430,21.973,16.602,0.000
1745696338.631,-32.227,-20.996,-33.203,-40.527,0.000
1745696338.635,-71.289,-133.301,-88.867,-88.379,0.000
1745696338.639,-39.551,-66.406,-53.711,-44.922,0.000
1745696338.643,6.836,53.223,7.812,12.695,0.000
1745696338.647,-15.625,0.977,-17.090,-17.090,0.000
1745696338.651,-62.988,-98.633,-77.637,-70.801,0.000
1745696338.654,-48.340,-72.266,-59.082,-41.504,0.000
1745696338.658,1.953,22.461,1.465,23.438,0.000
1745696338.662,-1.953,25.879,-1.465,15.137,0.000
1745696338.666,-55.176,-94.238,-60.059,-61.523,0.000
1745696338.670,-63.477,-114.258,-66.895,-77.148,0.000
1745696338.674,-17.090,7.812,-5.371,-13.672,0.000
1745696338.678,-0.977,52.246,14.648,7.324,0.000
1745696338.682,-41.504,-54.688,-45.410,-47.852,0.000
1745696338.686,-69.336,-116.699,-83.984,-82.520,0.000
1745696338.690,-35.645,-20.996,-38.086,-31.250,0.000
1745696338.694,0.488,57.129,13.672,11.230,0.000
1745696338.697,-31.738,-13.184,-22.461,-28.809,0.000
1745696338.701,-74.707,-113.281,-74.219,-78.613,0.000
1745696338.705,-50.293,-75.684,-46.875,-47.363,0.000
1745696338.709,-4.883,33.691,9.277,11.719,0.000
1745696338.713,-18.066,13.184,-11.230,-3.418,0.000
1745696338.717,-62.988,-103.516,-76.172,-61.523,0.000
1745696338.721,-56.641,-101.562,-71.777,-58.594,0.000
1745696338.725,-11.230,25.391,0.000,3.906,0.000
1745696338.729,-11.719,41.016,6.836,10.742,0.000
1745696338.733,-59.082,-83.984,-56.152,-50.781,0.000
1745696338.736,-66.895,-114.746,-68.848,-60.059,0.000
1745696338.740,-15.137,1.465,-4.395,1.953,0.000
1745696338.744,13.184,77.148,24.902,35.156,0.000
1745696338.748,-27.344,-20.508,-34.180,-14.160,0.000
1745696338.752,-55.176,-122.559,-78.613,-53.223,0.000
1745696338.756,-16.113,-46.387,-31.738,-8.301,0.000
1745696338.760,18.555,46.387,16.113,36.621,0.000
1745696338.764,-15.137,-18.066,-22.949,-4.395,0.000
1745696338.768,-58.594,-121.582,-81.543,-60.059,0.000
1745696338.772,-33.203,-70.312,-59.082,-33.691,0.000
1745696338.776,18.066,58.594,8.789,29.297,0.000
1745696338.779,4.883,33.203,-7.812,16.602,0.000
1745696338.783,-52.734,-95.215,-87.402,-50.293,0.000
1745696338.787,-50.293,-90.820,-79.102,-47.363,0.000
1745696338.791,1.465,48.340,-3.418,15.625,0.000
1745696338.795,2.441,65.430,-0.488,24.414,0.000
1745696338.799,-50.293,-88.867,-69.824,-45.410,0.000
1745696338.803,-68.359,-131.348,-85.449,-74.219,0.000
1745696338.807,-21.484,-0.488,-21.973,-15.625,0.000
1745696338.811,10.742,68.848,11.719,14.160,0.000
1745696338.815,-30.762,-54.199,-43.457,-45.410,0.000
1745696338.819,-69.824,-143.066,-89.355,-86.426,0.000
1745696338.822,-33.691,-45.898,-42.969,-41.504,0.000
1745696338.826,9.766,56.641,12.695,6.836,0.000
1745696338.830,-20.508,-3.906,-19.043,-22.461,0.000
1745696338.834,-64.453,-113.770,-78.613,-73.242,0.000
1745696338.838,-48.340,-57.617,-62.988,-50.293,0.000
1745696338.842,-6.836,53.711,-0.488,11.719,0.000
1745696338.846,-13.672,15.137,-8.789,9.277,0.000
1745696338.850,-55.176,-101.074,-70.801,-51.270,0.000
1745696338.854,-60.547,-101.074,-68.848,-60.547,0.000
1745696338.858,-17.578,23.438,-10.254,-5.371,0.000
1745696338.861,-9.766,47.852,-7.812,4.395,0.000
1745696338.865,-53.223,-62.500,-54.688,-52.734,0.000
1745696338.869,-74.219,-100.098,-74.707,-82.031,0.000
1745696338.873,-38.574,-17.578,-33.691,-35.645,0.000
1745696338.877,-6.836,41.992,5.859,4.395,0.000
1745696338.881,-42.969,-37.109,-35.156,-40.527,0.000
1745696338.885,-74.707,-114.258,-85.449,-87.402,0.000
1745696338.889,-40.527,-47.363,-51.270,-52.734,0.000
1745696338.893,0.000,31.738,-0.977,2.441,0.000
1745696338.897,-22.949,-23.926,-33.203,-20.020,0.000
1745696338.901,-70.801,-120.605,-86.426,-72.754,0.000
1745696338.904,-57.129,-84.473,-65.430,-50.781,0.000
1745696338.908,-6.348,31.738,0.000,15.625,0.000
1745696338.912,1.465,37.109,0.488,18.066,0.000
1745696338.916,-44.922,-79.102,-60.547,-39.551,0.000
1745696338.920,-51.758,-102.051,-67.383,-54.199,0.000
1745696338.924,-2.441,14.160,-6.836,-2.441,0.000
1745696338.928,12.695,64.941,9.766,23.438,0.000
1745696338.932,-26.367,-30.273,-48.340,-18.555,0.000
1745696338.936,-55.664,-104.980,-76.660,-63.477,0.000
1745696338.940,-26.855,-27.344,-29.297,-36.621,0.000
1745696338.943,-2.930,31.738,0.488,-10.742,0.000
1745696338.947,-39.551,-41.016,-36.133,-52.246,0.000
1745696338.951,-75.195,-105.469,-79.102,-90.332,0.000
1745696338.955,-55.664,-54.688,-58.594,-55.664,0.000
1745696338.959,-20.508,36.621,-1.465,-9.277,0.000
1745696338.963,-40.527,4.883,-17.090,-40.527,0.000
1745696338.967,-80.566,-101.562,-73.730,-96.680,0.000
1745696338.971,-52.734,-62.988,-55.176,-65.918,0.000
1745696338.975,-24.414,7.812,-15.625,-24.902,0.000
1745696338.979,-48.340,-20.996,-40.039,-38.086,0.000
1745696338.983,-38.086,-39.551,-52.734,-41.504,0.000
1745696338.986,-11.719,-18.555,-37.598,-33.691,0.000
1745696338.990,-30.273,-30.762,-51.270,-38.086,0.000
1745696338.994,-48.340,-72.754,-60.547,-51.758,0.000
1745696338.998,-23.926,-49.316,-44.434,-49.316,0.000
1745696339.002,-0.977,-10.254,-32.227,-31.738,0.000
1745696339.006,-20.020,-25.391,-38.086,-38.574,0.000
1745696339.010,-49.805,-65.430,-48.340,-50.293,0.000
1745696339.014,-35.645,-50.293,-41.016,-42.480,0.000
1745696339.018,0.000,-1.953,-27.344,-31.738,0.000
1745696339.022,-6.836,-11.230,-29.785,-28.809,0.000
1745696339.026,-41.992,-45.410,-42.969,-41.992,0.000
1745696339.029,-36.133,-45.898,-45.410,-43.945,0.000
1745696339.033,0.977,-24.902,-32.715,-22.461,0.000
1745696339.037,0.000,-10.742,-30.273,-15.137,0.000
1745696339.041,-28.320,-44.434,-50.293,-29.785,0.000
1745696339.045,-38.574,-60.547,-50.781,-37.598,0.000
1745696339.049,-14.160,-7.324,-32.715,-22.949,0.000
1745696339.053,-2.441,7.812,-28.809,-15.625,0.000
1745696339.057,-32.715,-43.457,-37.598,-26.367,0.000
1745696339.061,-51.758,-79.590,-47.363,-35.156,0.000
1745696339.065,-35.645,-48.340,-39.062,-31.250,0.000
1745696339.068,-13.672,3.906,-20.020,-18.555,0.000
1745696339.072,-29.297,-1.465,-24.902,-21.973,0.000
1745696339.076,-63.965,-57.617,-47.363,-41.504,0.000
1745696339.080,-55.664,-66.895,-46.387,-41.016,0.000
1745696339.084,-27.832,-15.137,-25.391,-23.438,0.000
1745696339.088,-33.203,-10.254,-27.344,-23.438,0.000
1745696339.092,-53.711,-51.270,-43.945,-35.645,0.000
1745696339.096,-51.270,-54.688,-45.898,-39.551,0.000
1745696339.100,-25.391,-11.719,-33.691,-33.691,0.000
1745696339.104,-21.484,-5.371,-26.855,-34.180,0.000
1745696339.108,-46.875,-34.180,-40.039,-47.852,0.000
1745696339.111,-54.688,-52.246,-47.852,-60.059,0.000
1745696339.115,-26.367,-32.227,-37.109,-52.246,0.000
1745696339.119,-5.371,17.090,-31.738,-38.086,0.000
1745696339.123,-29.297,-15.137,-40.527,-46.387,0.000
1745696339.127,-51.270,-72.266,-52.734,-51.758,0.000
1745696339.131,-37.109,-51.270,-47.363,-40.527,0.000
1745696339.135,-11.230,-11.719,-33.203,-32.227,0.000
1745696339.139,-19.043,-11.230,-36.621,-35.645,0.000
1745696339.143,-49.805,-43.945,-48.340,-49.316,0.000
1745696339.147,-45.410,-62.988,-52.734,-62.012,0.000
1745696339.151,-20.508,-39.062,-52.246,-60.059,0.000
1745696339.154,-9.766,-0.977,-40.039,-38.086,0.000
1745696339.158,-16.113,-4.883,-26.367,-29.297,0.000
1745696339.162,-24.414,-30.273,-36.621,-42.480,0.000
1745696339.166,-21.973,-29.297,-44.434,-47.363,0.000
1745696339.170,-16.602,2.441,-35.156,-36.621,0.000
1745696339.174,-20.996,-4.395,-33.691,-23.438,0.000
1745696339.178,-39.062,-48.340,-41.504,-24.414,0.000
1745696339.182,-41.504,-56.152,-45.898,-35.645,0.000
1745696339.186,-24.414,-28.320,-40.527,-36.133,0.000
1745696339.190,-20.508,-17.090,-34.668,-23.926,0.000
1745696339.193,-31.250,-25.879,-29.297,-23.438,0.000
1745696339.197,-37.598,-50.781,-41.504,-37.109,0.000
1745696339.201,-30.762,-51.758,-46.875,-40.039,0.000
1745696339.205,-24.902,-21.973,-31.738,-23.926,0.000
1745696339.209,-32.715,-16.113,-24.902,-8.301,0.000
1745696339.213,-48.340,-29.297,-40.527,-28.809,0.000
1745696339.217,-65.430,-77.148,-72.754,-70.312,0.000
1745696339.221,-53.711,-83.008,-63.965,-55.176,0.000
1745696339.225,-10.742,18.066,-4.395,6.348,0.000
1745696339.229,-15.137,38.574,0.488,5.371,0.000
1745696339.233,-63.965,-86.914,-63.477,-62.988,0.000
1745696339.236,-70.801,-119.629,-76.172,-83.984,0.000
1745696339.240,-25.391,0.488,-14.648,-19.531,0.000
1745696339.244,-8.301,48.828,6.348,4.395,0.000
1745696339.248,-49.316,-57.617,-51.270,-48.828,0.000
1745696339.252,-72.266,-117.676,-82.031,-85.938,0.000
1745696339.256,-38.574,-32.227,-38.574,-49.805,0.000
1745696339.260,-3.906,68.359,6.348,-2.441,0.000
1745696339.264,-24.414,10.254,-26.855,-32.715,0.000
1745696339.268,-61.035,-113.770,-81.543,-83.984,0.000
1745696339.272,-38.574,-71.777,-54.199,-51.758,0.000
1745696339.276,8.789,44.922,4.395,12.695,0.000
1745696339.279,-1.953,25.879,-7.324,-2.930,0.000
1745696339.283,-44.922,-91.309,-67.383,-64.453,0.000
1745696339.287,-42.480,-81.543,-62.988,-62.988,0.000
1745696339.291,-0.977,32.715,-0.488,1.953,0.000
1745696339.295,2.930,45.898,5.859,11.719,0.000
1745696339.299,-43.457,-75.684,-58.594,-45.898,0.000
1745696339.303,-55.664,-117.188,-73.242,-59.082,0.000
1745696339.307,-11.719,8.301,-16.113,-6.836,0.000
1745696339.311,10.742,68.359,9.766,16.602,0.000
1745696339.315,-28.320,-50.781,-41.016,-36.621,0.000
1745696339.318,-62.012,-127.930,-81.543,-72.754,0.000
1745696339.322,-34.668,-45.898,-42.969,-32.715,0.000
1745696339.326,-2.441,43.945,0.488,9.277,0.000
1745696339.330,-30.273,-14.648,-35.645,-25.879,0.000
1745696339.334,-72.754,-119.141,-86.914,-80.566,0.000
1745696339.338,-57.129,-76.660,-64.453,-57.129,0.000
1745696339.342,-6.348,47.363,-1.953,2.930,0.000
1745696339.346,-14.160,40.039,-9.277,-0.488,0.000
1745696339.350,-59.570,-83.496,-72.266,-57.129,0.000
1745696339.354,-61.523,-87.891,-70.801,-62.500,0.000
1745696339.358,-6.836,32.715,-4.883,-1.465,0.000
1745696339.361,6.836,44.922,1.465,7.812,0.000
1745696339.365,-46.875,-72.266,-66.406,-56.641,0.000
1745696339.369,-62.500,-115.234,-87.891,-75.195,0.000
1745696339.373,-16.602,-12.207,-32.227,-16.602,0.000
1745696339.377,5.859,57.129,-3.418,13.672,0.000
1745696339.381,-31.250,-36.621,-35.645,-41.016,0.000
1745696339.385,-62.500,-119.629,-75.195,-87.891,0.000
1745696339.389,-25.879,-37.598,-42.969,-58.594,0.000
1745696339.393,11.230,60.547,12.695,-9.277,0.000
1745696339.397,-18.066,8.789,-15.625,-33.203,0.000
1745696339.401,-64.453,-97.168,-77.148,-80.078,0.000
1745696339.404,-46.387,-65.430,-55.176,-58.105,0.000
1745696339.408,2.930,43.945,9.277,3.418,0.000
1745696339.412,-8.301,18.555,-1.465,-2.930,0.000
1745696339.416,-62.500,-104.004,-66.406,-63.965,0.000
1745696339.420,-65.918,-111.816,-67.871,-63.477,0.000
1745696339.424,-14.160,12.695,-0.488,4.883,0.000
1745696339.428,0.977,54.688,15.137,18.555,0.000
1745696339.432,-46.875,-68.848,-50.781,-48.340,0.000
1745696339.436,-70.801,-127.930,-79.590,-75.684,0.000
1745696339.440,-23.438,-14.648,-19.531,-12.695,0.000
1745696339.443,5.371,66.895,23.438,35.156,0.000
1745696339.447,-31.250,-7.324,-28.320,-14.160,0.000
1745696339.451,-64.941,-99.609,-77.637,-60.059,0.000
1745696339.455,-39.551,-49.805,-42.969,-24.902,0.000
1745696339.459,8.789,55.664,13.184,25.879,0.000
1745696339.463,-13.672,9.277,-12.207,-10.742,0.000
1745696339.467,-65.918,-99.121,-81.055,-73.730,0.000
1745696339.471,-54.199,-83.496,-74.707,-52.246,0.000
1745696339.475,-4.395,35.156,6.348,11.230,0.000
1745696339.479,-6.348,42.480,15.625,11.230,0.000
1745696339.483,-59.082,-83.496,-60.547,-61.523,0.000
1745696339.486,-71.289,-108.398,-76.660,-78.125,0.000
1745696339.490,-17.090,8.301,-12.695,-15.137,0.000
1745696339.494,4.395,69.824,16.113,5.859,0.000
1745696339.498,-42.969,-31.250,-46.387,-51.758,0.000
1745696339.502,-72.266,-129.883,-86.426,-82.031,0.000
1745696339.506,-33.691,-45.898,-27.832,-24.902,0.000
1745696339.510,5.859,57.129,15.625,16.602,0.000
1745696339.514,-20.020,-10.742,-31.738,-29.297,0.000
1745696339.518,-66.406,-119.141,-80.078,-78.125,0.000
1745696339.522,-46.387,-65.430,-46.387,-50.293,0.000
1745696339.526,2.441,57.129,6.348,3.418,0.000
1745696339.529,-12.207,10.254,-12.695,-13.672,0.000
1745696339.533,-55.664,-110.840,-72.266,-70.312,0.000
1745696339.537,-48.340,-89.844,-64.941,-58.594,0.000
1745696339.541,0.000,47.363,3.906,7.812,0.000
1745696339.545,8.301,60.059,12.695,21.484,0.000
1745696339.549,-40.527,-93.262,-57.617,-37.109,0.000
1745696339.553,-45.898,-123.535,-86.426,-50.781,0.000
1745696339.557,6.348,0.977,-10.254,6.836,0.000
1745696339.561,20.996,52.246,23.926,26.367,0.000
1745696339.565,-30.273,-47.852,-38.574,-32.227,0.000
1745696339.568,-65.430,-121.582,-77.637,-77.148,0.000
1745696339.572,-28.320,-42.480,-27.832,-33.691,0.000
1745696339.576,9.277,47.852,23.926,17.090,0.000
1745696339.580,-21.973,-20.020,-17.090,-18.066,0.000
1745696339.584,-59.082,-119.141,-78.125,-67.383,0.000
1745696339.588,-37.109,-53.711,-54.688,-40.527,0.000
1745696339.592,4.883,47.852,8.301,16.602,0.000
1745696339.596,-8.789,0.488,-2.441,4.395,0.000
1745696339.600,-63.965,-121.094,-69.824,-56.641,0.000
1745696339.604,-59.570,-112.793,-74.219,-56.152,0.000
1745696339.608,0.977,19.531,-9.277,2.930,0.000
1745696339.611,10.742,44.434,-0.488,15.137,0.000
1745696339.615,-43.457,-78.613,-55.664,-41.992,0.000
1745696339.619,-63.477,-126.465,-66.406,-68.848,0.000
1745696339.623,-14.648,-17.578,-8.301,-10.742,0.000
1745696339.627,15.137,52.734,27.344,20.996,0.000
1745696339.631,-26.367,-41.504,-24.902,-32.227,0.000
1745696339.635,-61.035,-109.375,-73.730,-68.848,0.000
1745696339.639,-25.391,-35.156,-31.738,-25.391,0.000
1745696339.643,15.137,41.992,20.508,23.926,0.000
1745696339.647,-14.648,-8.789,-16.602,-8.789,0.000
1745696339.651,-59.570,-134.277,-75.195,-70.801,0.000
1745696339.654,-40.527,-104.004,-55.664,-50.293,0.000
1745696339.658,5.371,37.109,5.859,19.531,0.000
1745696339.662,-6.348,12.207,-0.488,7.324,0.000
1745696339.666,-48.828,-121.094,-66.895,-60.547,0.000
1745696339.670,-47.363,-112.793,-69.824,-56.641,0.000
1745696339.674,2.441,21.484,-4.395,10.742,0.000
1745696339.678,13.184,67.383,22.949,27.832,0.000
1745696339.682,-42.480,-37.109,-38.086,-38.574,0.000
1745696339.686,-64.941,-113.281,-76.172,-74.707,0.000
1745696339.690,-18.555,-23.438,-23.926,-24.414,0.000
1745696339.693,7.324,53.223,13.672,20.020,0.000
1745696339.697,-42.969,-47.363,-39.551,-25.879,0.000
1745696339.701,-80.566,-119.141,-83.984,-76.660,0.000
1745696339.705,-46.387,-32.227,-44.434,-43.457,0.000
1745696339.709,2.441,61.523,11.230,8.789,0.000
1745696339.713,-14.160,8.301,-14.160,-13.672,0.000
1745696339.717,-61.035,-116.211,-78.125,-69.336,0.000
1745696339.721,-49.316,-89.844,-60.547,-46.875,0.000
1745696339.725,7.324,44.434,10.742,15.625,0.000
1745696339.729,11.230,61.035,3.906,9.766,0.000
1745696339.733,-48.828,-79.102,-81.543,-65.430,0.000
1745696339.736,-62.500,-119.629,-79.102,-82.031,0.000
1745696339.740,-6.348,12.695,-3.418,-12.695,0.000
1745696339.744,13.184,51.758,11.719,4.883,0.000
1745696339.748,-37.109,-63.965,-57.617,-56.641,0.000
1745696339.752,-66.406,-117.676,-87.891,-82.520,0.000
1745696339.756,-28.320,-18.066,-26.367,-31.250,0.000
1745696339.760,8.301,59.082,14.648,12.695,0.000
1745696339.764,-27.344,-13.184,-29.785,-27.344,0.000
1745696339.768,-69.824,-111.816,-83.496,-79.102,0.000
1745696339.772,-35.156,-61.035,-51.758,-48.828,0.000
1745696339.776,11.719,71.289,14.160,15.137,0.000
1745696339.779,-11.230,25.879,-9.277,0.977,0.000
1745696339.783,-57.129,-127.441,-84.473,-63.477,0.000
1745696339.787,-47.363,-113.281,-70.312,-49.316,0.000
1745696339.791,4.395,30.762,-6.348,17.090,0.000
1745696339.795,14.648,49.316,-7.812,21.484,0.000
1745696339.799,-34.180,-77.637,-65.918,-45.898,0.000
1745696339.803,-59.082,-107.910,-70.801,-62.012,0.000
1745696339.807,-23.438,3.418,-7.812,5.371,0.000
1745696339.811,-1.953,48.340,19.531,36.621,0.000
1745696339.815,-46.875,-55.664,-29.785,-20.508,0.000
1745696339.818,-73.242,-129.883,-70.801,-60.547,0.000
1745696339.822,-32.227,-30.273,-20.508,0.000,0.000
1745696339.826,0.488,76.172,33.203,44.922,0.000
1745696339.830,-38.086,-19.531,-15.625,-8.301,0.000
1745696339.834,-79.102,-146.484,-75.195,-71.777,0.000
1745696339.838,-49.316,-87.891,-46.387,-47.363,0.000
1745696339.842,0.000,34.668,21.973,24.414,0.000
1745696339.846,-20.020,14.648,1.465,13.672,0.000
1745696339.850,-71.289,-102.539,-65.430,-60.059,0.000
1745696339.854,-63.965,-107.422,-62.500,-62.988,0.000
1745696339.858,-8.789,14.160,3.418,-3.906,0.000
1745696339.861,2.441,37.598,21.484,3.906,0.000
1745696339.865,-44.922,-87.891,-48.828,-61.035,0.000
1745696339.869,-57.617,-111.328,-76.660,-85.938,0.000
1745696339.873,-14.648,13.672,-9.766,-14.160,0.000
1745696339.877,0.000,36.621,12.695,15.625,0.000
1745696339.881,-41.992,-62.988,-51.270,-46.387,0.000
1745696339.885,-70.312,-116.211,-81.543,-79.102,0.000
1745696339.889,-30.273,-41.992,-31.738,-28.809,0.000
1745696339.893,10.742,52.246,16.113,22.949,0.000
1745696339.897,-25.879,-15.137,-20.996,-12.695,0.000
1745696339.901,-64.453,-124.512,-88.867,-77.637,0.000
1745696339.904,-43.457,-76.660,-71.289,-54.199,0.000
1745696339.908,4.883,41.016,1.953,11.719,0.000
1745696339.912,-3.418,25.391,-9.277,1.953,0.000
1745696339.916,-54.199,-76.172,-74.219,-56.641,0.000
1745696339.920,-55.176,-91.797,-80.566,-48.828,0.000
1745696339.924,-10.254,4.395,-11.230,28.809,0.000
1745696339.928,1.953,37.598,11.719,37.109,0.000
1745696339.932,-42.480,-75.684,-54.688,-40.039,0.000
1745696339.936,-73.730,-135.254,-81.055,-60.059,0.000
1745696339.940,-21.973,-14.160,-22.949,0.000,0.000
1745696339.943,20.996,79.102,14.160,17.578,0.000
1745696339.947,-27.832,-26.367,-35.645,-47.363,0.000
1745696339.951,-72.754,-132.324,-94.727,-97.656,0.000
1745696339.955,-32.715,-54.199,-55.664,-48.340,0.000
1745696339.959,8.789,51.270,16.113,12.207,0.000
1745696339.963,-16.602,16.113,-9.766,-13.184,0.000
1745696339.967,-56.641,-93.750,-79.102,-78.613,0.000
1745696339.971,-45.898,-90.820,-65.430,-60.059,0.000
1745696339.975,-2.930,31.738,3.418,5.859,0.000
1745696339.979,-7.812,36.621,-8.789,-10.742,0.000
1745696339.983,-50.293,-86.914,-77.148,-69.336,0.000
1745696339.986,-56.152,-104.492,-81.055,-81.543,0.000
1745696339.990,-16.113,14.160,-13.672,-10.742,0.000
1745696339.994,-0.977,55.664,2.441,23.438,0.000
1745696339.998,-55.176,-61.523,-61.035,-56.152,0.000
1745696340.002,-91.797,-125.000,-85.449,-88.867,0.000
1745696340.006,-37.598,-2.441,-31.738,-32.227,0.000
1745696340.010,16.602,97.656,14.160,7.812,0.000
1745696340.014,-32.227,-10.254,-23.438,-22.949,0.000
1745696340.018,-81.543,-137.207,-78.613,-66.895,0.000
1745696340.022,-54.688,-73.730,-46.387,-55.176,0.000
1745696340.025,-22.949,41.504,6.836,-15.137,0.000
1745696340.029,-34.668,12.695,-21.484,-27.832,0.000
1745696340.033,-72.266,-110.840,-86.914,-82.520,0.000
1745696340.037,-69.336,-98.145,-74.707,-75.684,0.000
1745696340.041,-20.020,33.691,-10.254,-6.836,0.000
1745696340.045,-20.508,39.551,-9.766,-17.090,0.000
1745696340.049,-81.543,-85.938,-79.102,-84.473,0.000
1745696340.053,-88.379,-108.887,-80.078,-88.379,0.000
1745696340.057,-31.738,29.785,-7.812,-25.879,0.000
1745696340.061,-9.277,83.496,8.789,-8.789,0.000
1745696340.065,-44.434,-41.504,-46.875,-65.430,0.000
1745696340.068,-68.359,-134.277,-80.078,-81.543,0.000
1745696340.072,-35.156,-47.852,-32.227,-24.414,0.000
1745696340.076,6.836,52.734,16.602,14.648,0.000
1745696340.080,-18.555,-15.137,-26.367,-21.484,0.000
1745696340.084,-65.430,-119.629,-86.914,-83.496,0.000
1745696340.088,-44.922,-61.523,-52.734,-54.199,0.000
1745696340.092,12.695,63.477,13.184,16.602,0.000
1745696340.096,-2.441,24.902,0.488,12.695,0.000
1745696340.100,-57.129,-98.633,-76.172,-42.969,0.000
1745696340.104,-51.270,-75.195,-70.801,-44.434,0.000
1745696340.108,11.719,51.758,8.301,8.789,0.000
1745696340.111,22.461,48.828,11.719,0.977,0.000
1745696340.115,-39.551,-92.773,-61.035,-57.129,0.000
1745696340.119,-52.734,-128.906,-78.125,-62.500,0.000
1745696340.123,-2.930,5.859,-15.625,-5.371,0.000
1745696340.127,16.113,62.500,11.719,20.508,0.000
1745696340.131,-27.344,-56.641,-42.480,-28.320,0.000
1745696340.135,-56.641,-129.883,-84.473,-64.453,0.000
1745696340.139,-15.625,-41.016,-41.016,-20.508,0.000
1745696340.143,22.949,49.316,15.137,31.738,0.000
1745696340.147,-13.672,-11.230,-20.020,-3.906,0.000
1745696340.151,-58.105,-103.027,-85.449,-61.523,0.000
1745696340.154,-37.109,-56.152,-53.223,-30.762,0.000
1745696340.158,4.395,37.109,17.090,37.598,0.000
1745696340.162,-7.812,10.742,-5.859,17.578,0.000
1745696340.166,-61.523,-108.398,-76.172,-50.781,0.000
1745696340.170,-67.383,-106.934,-70.312,-53.223,0.000
1745696340.174,-6.836,27.344,0.977,1.953,0.000
1745696340.178,9.277,51.758,13.184,5.859,0.000
1745696340.182,-40.039,-63.477,-59.570,-51.758,0.000
1745696340.186,-64.453,-110.840,-86.914,-70.312,0.000
1745696340.190,-25.879,-12.695,-32.715,-15.137,0.000
1745696340.193,1.953,60.059,14.160,23.926,0.000
1745696340.197,-34.668,-16.602,-32.715,-23.926,0.000
1745696340.201,-66.895,-115.234,-83.008,-64.941,0.000
1745696340.205,-31.738,-58.594,-44.434,-33.203,0.000
1745696340.209,12.207,58.594,19.531,14.648,0.000
1745696340.213,-16.113,-1.465,-8.789,-7.812,0.000
1745696340.217,-66.406,-126.953,-76.172,-66.895,0.000
1745696340.221,-44.922,-86.914,-54.199,-49.805,0.000
1745696340.225,7.812,40.527,16.602,16.602,0.000
1745696340.229,2.930,40.039,12.695,12.207,0.000
1745696340.233,-48.340,-91.797,-58.105,-60.547,0.000
1745696340.236,-51.758,-112.793,-69.336,-70.801,0.000
1745696340.240,1.465,20.996,-12.207,-0.977,0.000
1745696340.244,14.648,77.637,19.043,26.367,0.000
1745696340.248,-33.691,-50.781,-41.016,-33.691,0.000
1745696340.252,-52.734,-126.953,-83.984,-75.195,0.000
1745696340.256,-23.926,-19.531,-24.902,-29.785,0.000
1745696340.260,-3.906,54.199,19.043,10.742,0.000
1745696340.264,-37.598,-31.250,-30.762,-43.945,0.000
1745696340.268,-73.242,-113.281,-87.891,-103.027,0.000
1745696340.272,-43.457,-37.598,-56.641,-80.566,0.000
1745696340.275,-1.465,67.871,4.883,-24.902,0.000
1745696340.279,-34.180,8.789,-21.973,-45.898,0.000
1745696340.283,-87.891,-115.234,-94.727,-103.027,0.000
1745696340.287,-75.684,-92.773,-82.031,-97.656,0.000
1745696340.291,-21.484,53.223,-3.418,-33.203,0.000
1745696340.295,-16.602,50.781,-5.859,-19.531,0.000
1745696340.299,-62.500,-98.145,-75.195,-81.055,0.000
1745696340.303,-71.777,-111.328,-83.984,-83.496,0.000
1745696340.307,-21.973,9.766,-20.996,-20.508,0.000
1745696340.311,10.742,62.500,0.000,0.977,0.000
1745696340.315,-29.297,-51.270,-50.781,-52.246,0.000
1745696340.318,-62.988,-125.488,-83.496,-85.938,0.000
1745696340.322,-25.391,-28.809,-30.762,-24.414,0.000
1745696340.326,11.230,58.105,15.625,23.926,0.000
1745696340.330,-21.484,-15.137,-26.855,-23.926,0.000
1745696340.334,-60.547,-115.234,-81.055,-79.590,0.000
1745696340.338,-37.109,-44.922,-47.363,-45.898,0.000
1745696340.342,7.324,70.801,18.066,21.484,0.000
1745696340.346,-10.254,18.555,-3.906,-2.441,0.000
1745696340.350,-61.035,-106.445,-72.266,-74.219,0.000
1745696340.354,-54.199,-95.703,-79.102,-66.895,0.000
1745696340.358,0.977,34.668,-10.254,0.000,0.000
1745696340.361,8.789,63.477,8.789,4.883,0.000
1745696340.365,-41.504,-68.359,-59.082,-62.500,0.000
1745696340.369,-56.641,-115.723,-83.008,-82.520,0.000
1745696340.373,-12.695,2.930,-18.555,-22.461,0.000
1745696340.377,7.812,63.965,11.719,12.207,0.000
1745696340.381,-38.086,-40.527,-45.898,-34.180,0.000
1745696340.385,-67.383,-104.004,-87.402,-80.078,0.000
1745696340.389,-26.855,-20.508,-36.621,-31.738,0.000
1745696340.393,6.348,51.758,11.719,18.066,0.000
1745696340.397,-30.762,-19.043,-35.156,-31.250,0.000
1745696340.401,-65.918,-121.582,-93.750,-98.633,0.000
1745696340.404,-42.480,-76.172,-62.988,-67.383,0.000
1745696340.408,0.488,43.945,7.812,3.418,0.000
1745696340.412,-7.324,34.668,-11.230,-5.859,0.000
1745696340.416,-54.688,-85.938,-75.195,-73.242,0.000
1745696340.420,-50.293,-88.379,-66.406,-71.289,0.000
1745696340.424,5.859,35.645,-1.465,-4.883,0.000
1745696340.428,10.254,48.340,4.883,4.395,0.000
1745696340.432,-41.504,-58.594,-58.105,-54.688,0.000
1745696340.436,-54.199,-101.074,-91.309,-75.195,0.000
1745696340.440,-12.207,-13.672,-32.227,-19.531,0.000
1745696340.444,2.930,49.805,12.695,15.137,0.000
1745696340.447,-42.969,-41.992,-42.969,-36.621,0.000
1745696340.451,-74.219,-134.277,-90.820,-76.660,0.000
1745696340.455,-33.203,-50.293,-39.551,-28.320,0.000
1745696340.459,9.766,55.176,14.648,22.461,0.000
1745696340.463,-13.672,-0.977,-21.973,-13.184,0.000
1745696340.467,-56.152,-112.305,-72.266,-68.848,0.000
1745696340.471,-41.992,-81.543,-52.246,-41.504,0.000
1745696340.475,4.395,44.434,9.766,25.879,0.000
1745696340.479,-6.836,40.039,3.906,28.809,0.000
1745696340.483,-54.199,-77.148,-62.012,-35.645,0.000
1745696340.487,-50.293,-83.984,-66.895,-48.340,0.000
1745696340.490,3.418,15.625,-4.395,3.906,0.000
1745696340.494,11.230,41.992,19.043,17.090,0.000
1745696340.498,-46.387,-64.941,-38.086,-32.227,0.000
1745696340.502,-64.941,-123.047,-71.289,-70.312,0.000
1745696340.506,-10.742,-14.160,-20.020,-31.738,0.000
1745696340.510,15.137,64.941,20.996,1.953,0.000
1745696340.514,-36.621,-22.461,-33.691,-60.059,0.000
1745696340.518,-73.242,-116.211,-82.520,-114.258,0.000
1745696340.522,-41.016,-50.293,-46.875,-68.359,0.000
1745696340.526,-8.301,68.359,7.812,-8.301,0.000
1745696340.529,-37.109,13.672,-13.184,-36.133,0.000
1745696340.533,-74.707,-124.512,-77.148,-94.727,0.000
1745696340.537,-62.500,-98.145,-63.965,-80.078,0.000
1745696340.541,-15.137,44.922,0.977,-13.672,0.000
1745696340.545,-12.695,38.574,-1.953,-7.812,0.000
1745696340.549,-62.500,-88.867,-72.754,-79.590,0.000
1745696340.553,-62.988,-99.609,-82.520,-93.750,0.000
1745696340.557,-10.742,22.949,-12.695,-20.020,0.000
1745696340.561,-0.488,66.895,11.719,7.812,0.000
1745696340.565,-45.410,-48.340,-45.410,-44.922,0.000
1745696340.569,-66.406,-121.094,-83.008,-70.312,0.000
1745696340.572,-30.762,-10.254,-26.855,-12.695,0.000
1745696340.576,5.859,76.172,23.438,34.668,0.000
1745696340.580,-22.461,-27.832,-31.250,-19.043,0.000
1745696340.584,-64.453,-128.418,-88.867,-70.312,0.000
1745696340.588,-38.574,-64.941,-51.758,-40.527,0.000
1745696340.592,-0.488,42.969,14.648,13.672,0.000
1745696340.596,-10.742,4.883,-4.883,-4.883,0.000
1745696340.600,-58.594,-102.539,-76.172,-67.871,0.000
1745696340.604,-55.664,-88.379,-59.570,-57.129,0.000
1745696340.608,1.465,27.832,14.160,10.742,0.000
1745696340.612,0.977,41.992,16.602,9.766,0.000
1745696340.615,-53.223,-84.473,-52.246,-60.059,0.000
1745696340.619,-63.965,-108.398,-73.730,-70.801,0.000
1745696340.623,-10.254,14.160,-8.301,-7.324,0.000
1745696340.627,13.184,45.410,19.043,15.625,0.000
1745696340.631,-40.527,-54.688,-35.645,-29.785,0.000
1745696340.635,-62.012,-122.070,-76.172,-59.082,0.000
1745696340.639,-12.207,-33.203,-35.645,-21.973,0.000
1745696340.643,23.926,67.871,23.438,20.996,0.000
1745696340.647,-11.719,-4.883,-12.695,-9.766,0.000
1745696340.651,-60.059,-112.793,-72.266,-61.523,0.000
1745696340.654,-37.109,-65.430,-44.922,-31.738,0.000
1745696340.658,17.090,64.453,20.020,24.414,0.000
1745696340.662,1.465,42.480,3.906,-0.488,0.000
1745696340.666,-54.688,-85.449,-67.871,-72.266,0.000
1745696340.670,-57.617,-91.309,-69.824,-70.801,0.000
1745696340.674,-11.230,16.113,-0.977,-1.465,0.000
1745696340.678,-13.672,39.062,10.254,8.301,0.000
1745696340.682,-73.730,-85.938,-63.965,-66.895,0.000
1745696340.686,-83.008,-136.230,-92.773,-101.562,0.000
1745696340.690,-32.715,-12.695,-21.973,-31.250,0.000
1745696340.694,-13.184,64.453,19.531,8.301,0.000
1745696340.697,-64.453,-43.457,-45.410,-52.734,0.000
1745696340.701,-97.656,-132.812,-95.703,-97.656,0.000
1745696340.705,-52.246,-51.758,-46.387,-51.270,0.000
1745696340.709,-10.254,48.340,13.184,8.789,0.000
1745696340.713,-37.598,-0.977,-20.020,-28.320,0.000
1745696340.717,-82.031,-103.027,-80.078,-85.449,0.000
1745696340.721,-58.105,-75.684,-54.199,-56.152,0.000
1745696340.725,-2.930,26.367,7.812,3.418,0.000
1745696340.729,-16.113,13.672,-6.348,-6.836,0.000
1745696340.733,-69.336,-107.422,-71.777,-80.566,0.000
1745696340.737,-67.871,-121.582,-72.754,-86.426,0.000
1745696340.740,-14.160,8.789,-8.301,-14.648,0.000
1745696340.744,-9.766,48.340,1.953,-1.465,0.000
1745696340.748,-55.664,-73.242,-51.270,-66.406,0.000
1745696340.752,-64.941,-131.348,-73.730,-90.332,0.000
1745696340.756,-30.273,-20.020,-14.648,-20.020,0.000
1745696340.760,-8.789,74.219,23.926,21.973,0.000
1745696340.764,-49.805,-23.926,-31.738,-27.832,0.000
1745696340.768,-80.078,-140.137,-83.008,-77.148,0.000
1745696340.772,-48.340,-55.664,-37.598,-31.738,0.000
1745696340.776,-12.695,61.035,23.438,38.086,0.000
1745696340.779,-36.133,12.207,-5.371,19.531,0.000
1745696340.783,-81.543,-106.934,-71.289,-45.898,0.000
1745696340.787,-70.801,-85.938,-57.617,-35.645,0.000
1745696340.791,-18.555,39.551,11.719,7.812,0.000
1745696340.795,-15.137,38.086,5.859,-37.598,0.000
1745696340.799,-61.523,-83.496,-70.801,-100.586,0.000
1745696340.803,-61.523,-103.027,-74.219,-83.984,0.000
1745696340.807,-3.906,35.156,2.441,-4.395,0.000
1745696340.811,16.113,74.707,18.555,21.484,0.000
1745696340.815,-32.227,-62.500,-49.805,-46.875,0.000
1745696340.819,-55.176,-114.258,-87.402,-84.473,0.000
1745696340.822,-6.348,-0.977,-26.367,-23.926,0.000
1745696340.826,17.090,67.383,22.949,8.301,0.000
1745696340.830,-43.457,-23.926,-32.715,-60.547,0.000
1745696340.834,-89.844,-122.070,-87.891,-121.094,0.000
1745696340.838,-68.359,-33.203,-46.875,-82.031,0.000
1745696340.842,-60.547,84.473,6.836,-55.664,0.000
1745696340.846,-110.840,16.602,-23.926,-117.676,0.000
1745696340.850,-175.781,-106.934,-88.867,-196.289,0.000
1745696340.854,-187.988,-66.895,-63.965,-201.660,0.000
1745696340.858,-149.414,64.453,11.230,-145.508,0.000
1745696340.862,-166.016,54.199,9.277,-160.645,0.000
1745696340.865,-239.746,-77.637,-57.617,-240.234,0.000
1745696340.869,-271.484,-119.141,-67.871,-258.301,0.000
1745696340.873,-232.422,2.930,4.883,-193.848,0.000
1745696340.877,-204.102,60.547,30.762,-162.109,0.000
1745696340.881,-247.559,-58.594,-28.809,-229.980,0.000
1745696340.885,-280.273,-136.230,-66.895,-275.879,0.000
1745696340.889,-229.492,-33.203,-8.789,-199.707,0.000
1745696340.893,-174.805,64.941,43.457,-136.230,0.000
1745696340.897,-198.730,-13.184,-1.953,-176.270,0.000
1745696340.901,-227.051,-108.398,-55.176,-214.355,0.000
1745696340.904,-180.664,-47.852,-23.926,-176.758,0.000
1745696340.908,-117.676,53.223,38.574,-116.699,0.000
1745696340.912,-125.000,0.977,15.625,-121.094,0.000
1745696340.916,-159.668,-126.465,-60.059,-170.410,0.000
1745696340.920,-136.719,-104.980,-51.270,-153.320,0.000
1745696340.924,-72.754,23.438,25.879,-64.941,0.000
1745696340.928,-51.758,39.551,29.297,-42.480,0.000
1745696340.932,-75.684,-74.219,-53.223,-96.680,0.000
1745696340.936,-65.430,-109.375,-72.754,-94.238,0.000
1745696340.940,-4.883,8.789,1.465,-13.184,0.000
1745696340.944,24.414,64.453,37.109,31.738,0.000
1745696340.947,-15.137,-33.691,-30.762,-17.090,0.000
1745696340.951,-38.086,-122.559,-83.984,-57.617,0.000
1745696340.955,8.789,-49.316,-37.109,-11.719,0.000
1745696340.959,54.688,68.848,16.113,48.340,0.000
1745696340.963,25.391,-10.742,-21.484,20.508,0.000
1745696340.967,-21.484,-134.277,-86.426,-32.227,0.000
1745696340.971,7.812,-83.496,-66.895,18.066,0.000
1745696340.975,65.918,44.434,13.184,101.074,0.000
1745696340.979,57.129,29.785,2.441,76.660,0.000
1745696340.983,10.742,-104.004,-79.102,2.930,0.000
1745696340.987,12.207,-111.816,-82.520,15.625,0.000
1745696340.990,56.152,16.113,-2.441,88.867,0.000
1745696340.994,66.406,59.082,20.508,107.910,0.000
1745696340.998,20.508,-56.152,-46.875,43.945,0.000
1745696341.002,3.418,-126.953,-76.660,19.043,0.000
1745696341.006,49.316,-15.625,-13.672,73.730,0.000
1745696341.010,76.172,59.082,24.414,95.703,0.000
1745696341.014,40.527,-41.016,-39.551,35.645,0.000
1745696341.018,2.930,-121.094,-87.402,-16.602,0.000
1745696341.022,35.645,-38.574,-41.992,26.367,0.000
1745696341.026,74.707,51.270,5.859,82.520,0.000
1745696341.029,44.922,-4.883,-30.762,48.828,0.000
1745696341.033,3.418,-118.652,-88.379,-15.137,0.000
1745696341.037,16.602,-91.797,-71.777,2.441,0.000
1745696341.041,67.871,56.152,-9.766,65.918,0.000
1745696341.045,63.477,50.781,-1.953,53.711,0.000
1745696341.049,7.812,-105.469,-73.242,-21.484,0.000
1745696341.053,-0.977,-120.605,-82.031,-28.809,0.000
1745696341.057,45.898,12.695,-8.301,41.504,0.000
1745696341.061,65.918,53.223,4.883,61.523,0.000
1745696341.065,26.855,-58.594,-55.664,-1.465,0.000
1745696341.069,1.465,-114.258,-81.543,-33.203,0.000
1745696341.072,36.133,-14.648,-28.809,20.508,0.000
1745696341.076,63.965,70.312,10.254,51.758,0.000
1745696341.080,28.809,-8.301,-36.621,3.906,0.000
1745696341.084,-11.719,-119.141,-86.426,-42.969,0.000
1745696341.088,16.113,-41.016,-57.617,-0.488,0.000
1745696341.092,56.641,75.195,0.000,50.781,0.000
1745696341.096,29.785,4.395,-8.789,15.625,0.000
1745696341.100,-22.461,-120.605,-66.895,-51.758,0.000
1745696341.104,-16.113,-96.680,-56.152,-39.551,0.000
1745696341.108,30.273,33.691,9.766,30.762,0.000
1745696341.111,21.484,40.039,5.859,25.391,0.000
1745696341.115,-36.621,-84.473,-64.941,-48.340,0.000
1745696341.119,-50.293,-114.258,-74.707,-62.988,0.000
1745696341.123,-8.789,12.695,-8.301,-7.324,0.000
1745696341.127,1.953,55.176,3.906,6.836,0.000
1745696341.131,-41.504,-60.547,-55.664,-53.223,0.000
1745696341.135,-71.777,-114.746,-78.613,-91.309,0.000
1745696341.139,-34.668,-18.066,-25.391,-38.574,0.000
1745696341.143,1.953,54.688,14.648,14.648,0.000
1745696341.147,-32.227,-31.250,-31.738,-23.926,0.000
1745696341.151,-69.336,-128.418,-83.496,-78.613,0.000
1745696341.154,-40.039,-65.918,-56.641,-42.969,0.000
1745696341.158,2.441,55.664,8.301,25.879,0.000
1745696341.162,-18.066,23.926,-13.184,0.000,0.000
1745696341.166,-56.152,-100.098,-87.891,-72.754,0.000
1745696341.170,-51.758,-91.797,-71.289,-63.477,0.000
1745696341.174,-4.883,32.715,0.977,6.836,0.000
1745696341.178,3.906,46.387,0.488,10.254,0.000
1745696341.182,-49.316,-61.035,-69.824,-53.711,0.000
1745696341.186,-65.918,-109.375,-89.355,-65.430,0.000
1745696341.190,-21.484,-17.578,-21.484,-0.488,0.000
1745696341.194,2.930,52.734,7.812,27.832,0.000
1745696341.197,-36.133,-34.668,-50.781,-28.320,0.000
1745696341.201,-61.035,-121.094,-91.797,-62.988,0.000
1745696341.205,-18.555,-37.109,-44.434,-17.578,0.000
1745696341.209,20.996,62.988,12.695,28.809,0.000
1745696341.213,-4.883,-1.953,-18.066,-4.883,0.000
1745696341.217,-41.504,-105.469,-75.195,-56.641,0.000
1745696341.221,-19.531,-63.965,-50.293,-27.832,0.000
1745696341.225,30.273,61.035,12.695,32.227,0.000
1745696341.229,23.926,53.223,0.488,19.531,0.000
1745696341.233,-32.715,-84.473,-65.430,-42.969,0.000
1745696341.236,-36.621,-109.375,-71.289,-51.270,0.000
1745696341.240,13.672,19.043,-4.395,10.254,0.000
1745696341.244,19.531,53.711,9.766,25.879,0.000
1745696341.248,-28.320,-57.617,-46.875,-42.480,0.000
1745696341.252,-50.293,-106.934,-73.242,-71.777,0.000
1745696341.256,-11.719,6.348,-25.391,-20.020,0.000
1745696341.260,10.742,72.266,5.371,8.301,0.000
1745696341.264,-34.180,-43.945,-45.898,-45.898,0.000
1745696341.268,-69.336,-129.883,-88.867,-85.938,0.000
1745696341.272,-35.156,-42.480,-44.434,-38.574,0.000
1745696341.276,7.812,73.730,7.324,13.672,0.000
1745696341.279,-24.414,16.113,-23.926,-20.020,0.000
1745696341.283,-73.730,-116.699,-86.914,-81.055,0.000
1745696341.287,-59.570,-87.402,-69.336,-62.012,0.000
1745696341.291,-12.695,40.527,-2.441,3.418,0.000
1745696341.295,-14.160,36.621,-6.836,-4.395,0.000
1745696341.299,-65.918,-87.891,-71.289,-70.312,0.000
1745696341.303,-66.406,-101.074,-79.102,-70.801,0.000
1745696341.307,-16.113,20.508,-19.043,-11.230,0.000
1745696341.311,-5.859,49.805,1.465,0.488,0.000
1745696341.315,-49.805,-66.406,-60.547,-60.547,0.000
1745696341.319,-62.988,-108.398,-85.449,-82.520,0.000
1745696341.322,-21.484,-3.906,-17.090,-18.066,0.000
1745696341.326,9.766,78.613,25.879,28.809,0.000
1745696341.330,-23.438,-30.273,-36.621,-24.902,0.000
1745696341.334,-59.082,-139.160,-92.773,-77.637,0.000
1745696341.338,-28.320,-59.570,-44.922,-29.785,0.000
1745696341.342,10.742,48.340,13.672,29.785,0.000
1745696341.346,-7.812,5.859,-16.602,-0.977,0.000
1745696341.350,-49.316,-106.934,-82.031,-66.895,0.000
1745696341.354,-33.203,-80.566,-62.988,-47.363,0.000
1745696341.358,18.555,47.852,0.977,21.973,0.000
1745696341.361,16.113,47.363,-9.277,26.855,0.000
1745696341.365,-36.133,-83.984,-70.801,-37.109,0.000
1745696341.369,-43.457,-101.074,-74.219,-56.641,0.000
1745696341.373,7.812,25.879,-5.859,8.301,0.000
1745696341.377,25.391,62.500,11.719,36.621,0.000
1745696341.381,-20.020,-61.523,-47.852,-20.996,0.000
1745696341.385,-41.992,-128.906,-79.102,-58.105,0.000
1745696341.389,0.000,-26.855,-34.668,-7.812,0.000
1745696341.393,24.414,60.059,20.508,35.645,0.000
1745696341.397,-13.672,-17.578,-19.531,-14.160,0.000
1745696341.401,-54.688,-122.559,-76.660,-63.965,0.000
1745696341.404,-35.645,-67.871,-44.434,-26.367,0.000
1745696341.408,5.859,49.805,9.277,30.762,0.000
1745696341.412,-14.160,16.602,-13.672,10.742,0.000
1745696341.416,-63.965,-95.215,-77.148,-55.664,0.000
1745696341.420,-63.477,-85.449,-70.312,-60.059,0.000
1745696341.424,-22.461,7.812,-8.301,-3.906,0.000
1745696341.428,-18.555,17.578,-6.348,3.418,0.000
1745696341.432,-62.500,-85.449,-67.383,-59.082,0.000
1745696341.436,-73.730,-106.934,-79.102,-77.637,0.000
1745696341.440,-29.297,0.977,-17.090,-12.695,0.000
1745696341.444,-5.371,47.363,5.859,14.160,0.000
1745696341.447,-45.410,-54.199,-51.758,-48.828,0.000
1745696341.451,-76.172,-126.953,-89.844,-91.309,0.000
1745696341.455,-40.527,-38.574,-43.945,-41.504,0.000
1745696341.459,0.000,56.152,15.625,17.090,0.000
1745696341.463,-22.461,6.348,-25.391,-20.996,0.000
1745696341.467,-61.523,-109.375,-79.590,-84.961,0.000
1745696341.471,-37.598,-81.543,-49.316,-55.664,0.000
1745696341.475,14.648,38.086,7.324,12.207,0.000
1745696341.479,4.395,15.625,-11.230,-4.883,0.000
1745696341.483,-46.875,-101.074,-77.148,-62.988,0.000
1745696341.486,-48.340,-97.656,-68.848,-50.781,0.000
1745696341.490,3.906,27.344,0.977,1.465,0.000
1745696341.494,15.137,63.965,8.301,-3.418,0.000
1745696341.498,-34.668,-46.387,-55.664,-63.965,0.000
1745696341.502,-59.082,-112.305,-77.637,-79.590,0.000
1745696341.506,-20.020,-12.695,-14.648,-12.207,0.000
1745696341.510,5.371,75.195,22.949,30.273,0.000
1745696341.514,-33.691,-28.320,-38.086,-24.414,0.000
1745696341.518,-62.012,-130.371,-81.055,-73.730,0.000
1745696341.522,-33.203,-50.293,-35.645,-40.039,0.000
1745696341.526,-6.348,43.457,10.254,-2.441,0.000
1745696341.529,-32.715,-11.719,-23.926,-32.227,0.000
1745696341.533,-70.801,-110.840,-80.566,-84.473,0.000
1745696341.537,-57.129,-72.754,-56.152,-65.918,0.000
1745696341.541,-15.625,36.133,2.441,-6.348,0.000
1745696341.545,-24.414,20.508,-9.766,-19.043,0.000
1745696341.549,-69.336,-90.332,-77.637,-77.148,0.000
1745696341.553,-68.848,-99.609,-79.102,-75.684,0.000
1745696341.557,-18.555,30.273,-2.441,-15.625,0.000
1745696341.561,-6.348,60.059,15.625,5.859,0.000
1745696341.565,-59.570,-78.125,-52.734,-59.570,0.000
1745696341.569,-81.055,-134.766,-86.914,-91.309,0.000
1745696341.572,-36.133,-33.203,-29.785,-33.203,0.000
1745696341.576,-1.953,47.363,18.555,9.277,0.000
1745696341.580,-36.621,-36.621,-33.691,-36.133,0.000
1745696341.584,-74.219,-125.488,-81.543,-86.426,0.000
1745696341.588,-44.922,-56.152,-41.016,-51.758,0.000
1745696341.592,-2.930,47.852,11.230,0.977,0.000
1745696341.596,-21.973,2.441,-14.160,-28.320,0.000
1745696341.600,-60.547,-109.375,-78.613,-92.285,0.000
1745696341.604,-50.293,-64.453,-63.477,-70.801,0.000
1745696341.608,-4.883,49.805,-7.812,-3.906,0.000
1745696341.611,-5.859,30.273,-20.508,-14.160,0.000
1745696341.615,-49.805,-79.102,-73.730,-76.172,0.000
1745696341.619,-48.340,-98.145,-77.148,-72.266,0.000
1745696341.623,-7.812,10.742,-13.184,-7.812,0.000
1745696341.627,-6.836,44.434,19.043,3.418,0.000
1745696341.631,-48.340,-63.965,-39.062,-54.688,0.000
1745696341.635,-64.941,-120.117,-77.148,-82.520,0.000
1745696341.639,-25.879,-27.832,-31.250,-34.180,0.000
1745696341.643,8.789,48.828,19.043,14.648,0.000
1745696341.647,-23.438,-24.902,-12.207,-23.438,0.000
1745696341.651,-63.965,-103.516,-64.941,-76.660,0.000
1745696341.654,-38.574,-49.316,-41.504,-43.457,0.000
1745696341.658,0.000,39.062,19.531,13.184,0.000
1745696341.662,-24.902,-4.883,-6.348,-9.277,0.000
1745696341.666,-76.660,-119.629,-75.195,-79.590,0.000
1745696341.670,-68.848,-95.215,-69.336,-75.195,0.000
1745696341.674,-18.555,35.156,-4.395,-15.137,0.000
1745696341.678,-16.113,47.852,4.395,-6.348,0.000
1745696341.682,-61.035,-74.707,-69.824,-62.500,0.000
1745696341.686,-65.430,-110.840,-81.543,-78.125,0.000
1745696341.690,-20.996,-4.883,-11.230,-13.184,0.000
1745696341.694,-4.883,50.293,17.578,14.160,0.000
1745696341.697,-52.734,-29.785,-41.016,-42.480,0.000
1745696341.701,-75.684,-97.168,-73.242,-74.707,0.000
1745696341.705,-33.203,-39.062,-29.297,-30.273,0.000
1745696341.709,1.953,41.992,7.324,6.836,0.000
1745696341.713,-23.438,-17.090,-28.809,-25.879,0.000
1745696341.717,-59.082,-112.793,-81.055,-73.242,0.000
1745696341.721,-38.574,-66.406,-56.152,-46.875,0.000
1745696341.725,5.371,45.898,4.883,8.301,0.000
1745696341.729,-2.930,23.438,-15.137,-4.883,0.000
1745696341.733,-45.898,-78.125,-78.125,-59.082,0.000
1745696341.736,-40.039,-71.289,-67.383,-50.781,0.000
1745696341.740,2.930,21.484,1.465,8.789,0.000
1745696341.744,-0.488,52.734,13.184,11.719,0.000
1745696341.748,-44.922,-52.734,-52.734,-43.457,0.000
1745696341.752,-59.570,-124.023,-78.613,-64.453,0.000
1745696341.756,-15.625,-24.414,-23.438,-10.742,0.000
1745696341.760,8.789,48.340,15.625,19.531,0.000
1745696341.764,-33.203,-45.410,-39.062,-34.668,0.000
1745696341.768,-64.453,-119.629,-86.914,-75.684,0.000
1745696341.772,-33.203,-33.691,-42.480,-26.855,0.000
1745696341.776,0.977,57.617,7.324,18.555,0.000
1745696341.779,-17.578,1.465,-30.762,-17.090,0.000
1745696341.783,-59.082,-105.469,-88.867,-77.148,0.000
1745696341.787,-43.457,-68.848,-54.688,-53.223,0.000
1745696341.791,5.371,68.848,14.648,14.648,0.000
1745696341.795,-11.719,60.059,0.488,1.953,0.000
1745696341.799,-60.059,-94.238,-68.848,-62.012,0.000
1745696341.803,-58.105,-115.234,-68.359,-63.477,0.000
1745696341.807,-11.230,16.602,0.000,-0.488,0.000
1745696341.811,3.418,49.805,-3.418,17.090,0.000
1745696341.815,-41.992,-60.059,-62.500,-43.457,0.000
1745696341.819,-62.500,-106.934,-73.730,-74.219,0.000
1745696341.822,-25.879,-5.371,-24.902,-17.090,0.000
1745696341.826,-5.371,57.129,3.906,18.555,0.000
1745696341.830,-39.551,-32.715,-40.527,-29.297,0.000
1745696341.834,-63.965,-110.840,-82.520,-72.754,0.000
1745696341.838,-29.297,-26.367,-44.434,-41.504,0.000
1745696341.842,3.418,55.176,9.277,9.277,0.000
1745696341.846,-12.207,-8.789,-13.184,-13.184,0.000
1745696341.850,-55.176,-115.234,-75.684,-66.406,0.000
1745696341.854,-52.734,-75.195,-74.707,-56.152,0.000
1745696341.858,-6.836,45.898,-6.348,1.953,0.000
1745696341.861,-6.836,22.949,3.418,-1.953,0.000
1745696341.865,-49.805,-104.004,-67.383,-63.965,0.000
1745696341.869,-54.688,-115.234,-75.684,-68.359,0.000
1745696341.873,-13.184,12.207,-13.672,-8.789,0.000
1745696341.877,2.441,57.129,8.789,11.719,0.000
1745696341.881,-37.109,-50.293,-50.293,-38.574,0.000
1745696341.885,-52.246,-95.215,-81.543,-68.359,0.000
1745696341.889,-14.160,-2.441,-24.902,-30.762,0.000
1745696341.893,8.789,58.105,15.625,1.953,0.000
1745696341.897,-23.926,-19.043,-30.762,-37.598,0.000
1745696341.901,-62.012,-112.793,-83.496,-84.473,0.000
1745696341.904,-38.086,-48.340,-42.969,-47.363,0.000
1745696341.908,3.418,61.035,21.484,8.789,0.000
1745696341.912,-18.555,26.367,-7.324,-14.648,0.000
1745696341.916,-65.430,-85.449,-67.871,-72.754,0.000
1745696341.920,-56.641,-86.426,-59.570,-65.430,0.000
1745696341.924,-12.207,26.367,-2.930,4.395,0.000
1745696341.928,-11.230,40.039,1.953,12.207,0.000
1745696341.932,-61.035,-66.406,-64.941,-57.129,0.000
1745696341.936,-69.824,-97.168,-85.449,-72.754,0.000
1745696341.940,-20.996,-0.488,-19.043,-14.648,0.000
1745696341.944,-2.930,42.969,5.859,4.395,0.000
1745696341.947,-42.969,-53.711,-58.594,-51.270,0.000
1745696341.951,-63.965,-122.070,-89.355,-73.242,0.000
1745696341.955,-19.043,-29.297,-30.762,-17.090,0.000
1745696341.959,9.766,61.523,12.207,17.578,0.000
1745696341.963,-24.902,-16.113,-19.531,-22.461,0.000
1745696341.967,-59.570,-121.094,-76.172,-70.312,0.000
1745696341.971,-42.969,-68.848,-52.246,-46.875,0.000
1745696341.975,0.000,60.547,10.742,4.395,0.000
1745696341.979,-11.230,46.875,-8.301,-13.672,0.000
1745696341.983,-56.152,-79.102,-78.613,-67.383,0.000
1745696341.986,-52.246,-98.145,-79.590,-62.988,0.000
1745696341.990,-10.254,17.578,-9.277,-9.766,0.000
1745696341.994,-2.441,47.852,10.742,1.953,0.000
1745696341.998,-45.410,-65.430,-53.223,-54.199,0.000
1745696342.002,-60.547,-107.910,-75.195,-74.219,0.000
1745696342.006,-14.648,3.418,-10.254,-9.766,0.000
1745696342.010,5.859,61.523,16.602,22.461,0.000
1745696342.014,-34.180,-33.203,-38.574,-24.902,0.000
1745696342.018,-61.035,-107.910,-74.219,-62.988,0.000
1745696342.022,-27.832,-35.645,-33.691,-27.832,0.000
1745696342.026,6.348,71.289,16.113,14.648,0.000
1745696342.029,-19.043,17.090,-15.625,-21.973,0.000
1745696342.033,-56.152,-105.957,-74.707,-77.637,0.000
1745696342.037,-41.016,-76.172,-62.500,-51.270,0.000
1745696342.041,-0.488,28.809,0.488,5.371,0.000
1745696342.045,-1.953,20.996,-5.859,-10.254,0.000
1745696342.049,-48.828,-86.914,-67.871,-67.871,0.000
1745696342.053,-55.176,-95.215,-69.824,-71.289,0.000
1745696342.057,-12.207,15.625,-12.695,-16.602,0.000
1745696342.061,-9.766,41.016,0.488,-3.906,0.000
1745696342.065,-56.152,-68.359,-57.617,-61.035,0.000
1745696342.069,-62.988,-101.562,-76.172,-80.078,0.000
1745696342.072,-20.996,8.301,-18.555,-29.785,0.000
1745696342.076,-0.488,70.801,10.742,-0.977,0.000
1745696342.080,-37.598,-35.645,-54.688,-48.340,0.000
1745696342.084,-65.430,-125.000,-94.727,-90.820,0.000
1745696342.088,-28.809,-43.945,-34.668,-47.363,0.000
1745696342.092,6.836,64.453,19.531,8.301,0.000
1745696342.096,-16.602,9.277,-23.438,-23.926,0.000
1745696342.100,-58.105,-110.352,-81.543,-82.031,0.000
1745696342.104,-43.945,-76.660,-56.641,-60.547,0.000
1745696342.108,-2.441,39.551,3.906,4.395,0.000
1745696342.111,-13.184,26.367,-2.441,-1.953,0.000
1745696342.115,-57.129,-93.750,-67.871,-66.406,0.000
1745696342.119,-54.688,-86.914,-68.359,-65.430,0.000
1745696342.123,-11.230,24.902,-11.230,-2.930,0.000
1745696342.127,0.000,34.180,-3.906,6.836,0.000
1745696342.131,-44.922,-75.684,-53.711,-55.176,0.000
1745696342.135,-63.965,-122.559,-74.707,-83.496,0.000
1745696342.139,-22.949,-15.137,-23.438,-26.367,0.000
1745696342.143,1.465,52.734,15.625,12.207,0.000
1745696342.147,-29.785,-32.227,-30.762,-32.715,0.000
1745696342.151,-66.895,-115.234,-83.008,-78.613,0.000
1745696342.154,-38.574,-40.527,-45.898,-38.086,0.000
1745696342.158,8.301,59.570,11.719,21.484,0.000
1745696342.162,-7.812,10.254,-18.555,-4.395,0.000
1745696342.166,-51.270,-89.844,-82.031,-63.965,0.000
1745696342.170,-43.457,-60.059,-66.895,-54.199,0.000
1745696342.174,1.465,33.203,-2.441,1.465,0.000
1745696342.178,0.977,27.832,-7.812,1.465,0.000
1745696342.182,-44.434,-82.520,-66.406,-54.199,0.000
1745696342.186,-54.688,-108.398,-73.730,-67.871,0.000
1745696342.190,-13.672,6.348,-10.742,-5.859,0.000
1745696342.194,1.465,49.805,17.090,20.508,0.000
1745696342.197,-43.457,-51.270,-44.434,-42.480,0.000
1745696342.201,-70.312,-113.281,-81.543,-77.148,0.000
1745696342.205,-31.250,-27.832,-33.203,-26.367,0.000
1745696342.209,4.883,56.152,2.441,2.930,0.000
1745696342.213,-22.461,3.906,-34.180,-40.039,0.000
1745696342.217,-61.523,-81.055,-72.266,-79.590,0.000
1745696342.221,-45.410,-60.059,-43.457,-56.152,0.000
1745696342.225,-1.465,30.273,9.277,0.000,0.000
1745696342.229,-8.789,15.625,-7.324,-10.742,0.000
1745696342.233,-55.664,-95.215,-68.359,-69.824,0.000
1745696342.236,-54.199,-92.773,-63.477,-60.547,0.000
1745696342.240,-9.277,31.250,0.000,-1.953,0.000
1745696342.244,-7.324,41.992,4.883,1.953,0.000
1745696342.248,-55.176,-81.055,-58.105,-60.059,0.000
1745696342.252,-71.289,-116.211,-75.684,-80.078,0.000
1745696342.256,-24.414,-1.953,-6.348,-16.113,0.000
1745696342.260,-2.441,75.684,23.926,12.207,0.000
1745696342.264,-51.758,-32.227,-36.621,-47.363,0.000
1745696342.268,-84.473,-133.789,-83.008,-90.820,0.000
1745696342.272,-51.270,-44.922,-39.062,-51.758,0.000
1745696342.276,-17.090,47.363,9.766,-4.395,0.000
1745696342.279,-38.086,-20.508,-22.461,-35.156,0.000
1745696342.283,-71.289,-120.117,-73.242,-84.473,0.000
1745696342.287,-54.199,-79.590,-51.758,-58.594,0.000
1745696342.291,-10.254,30.762,0.488,3.906,0.000
1745696342.295,-14.648,18.555,-15.137,-4.883,0.000
1745696342.299,-63.477,-94.238,-82.031,-72.754,0.000
1745696342.303,-61.035,-97.656,-80.566,-83.496,0.000
1745696342.307,-11.719,33.691,-7.324,-24.902,0.000
1745696342.311,-6.836,56.152,6.348,-12.207,0.000
1745696342.315,-52.246,-77.148,-57.617,-78.125,0.000
1745696342.318,-71.289,-131.348,-87.402,-101.562,0.000
1745696342.322,-27.832,-23.926,-34.668,-35.156,0.000
1745696342.326,-5.371,41.992,6.836,-5.371,0.000
1745696342.330,-42.969,-41.016,-38.574,-59.570,0.000
1745696342.334,-70.801,-112.305,-80.078,-91.797,0.000
1745696342.338,-38.086,-50.293,-42.969,-45.410,0.000
1745696342.342,-1.465,53.711,13.672,1.465,0.000
1745696342.346,-29.785,-6.348,-18.066,-31.250,0.000
1745696342.350,-75.684,-123.535,-83.984,-81.055,0.000
1745696342.354,-62.500,-68.359,-55.664,-62.988,0.000
1745696342.358,-15.625,44.922,5.371,-8.789,0.000
1745696342.361,-20.020,19.043,-9.277,-17.578,0.000
1745696342.365,-61.523,-97.168,-62.500,-77.148,0.000
1745696342.369,-59.082,-109.375,-67.383,-77.148,0.000
1745696342.373,-26.855,2.930,-8.301,-19.531,0.000
1745696342.377,-20.508,37.109,13.672,-1.953,0.000
1745696342.381,-56.152,-63.477,-41.016,-45.410,0.000
1745696342.385,-77.637,-124.512,-68.848,-67.871,0.000
1745696342.389,-35.645,-33.203,-19.043,-19.531,0.000
1745696342.393,-4.395,55.176,19.531,7.324,0.000
1745696342.397,-39.551,-38.086,-25.391,-37.109,0.000
1745696342.401,-74.707,-123.047,-77.637,-77.637,0.000
1745696342.404,-48.340,-61.035,-49.805,-43.457,0.000
1745696342.408,-5.371,23.438,9.766,13.184,0.000
1745696342.412,-20.508,-12.695,-11.719,-10.742,0.000
1745696342.416,-65.430,-125.977,-74.707,-71.777,0.000
1745696342.420,-54.688,-106.445,-62.988,-57.617,0.000
1745696342.424,-5.859,20.996,4.883,5.859,0.000
1745696342.428,-6.348,24.414,5.859,1.465,0.000
1745696342.432,-51.270,-91.309,-54.688,-65.918,0.000
1745696342.436,-60.059,-114.258,-66.895,-77.148,0.000
1745696342.440,-11.719,-2.441,-14.648,-8.301,0.000
1745696342.443,3.906,56.641,10.254,11.719,0.000
1745696342.447,-42.480,-34.668,-48.828,-44.434,0.000
1745696342.451,-68.848,-95.215,-88.379,-75.195,0.000
1745696342.455,-36.621,-26.855,-39.062,-31.738,0.000
1745696342.459,-8.789,38.574,-2.441,5.371,0.000
1745696342.463,-36.621,-29.297,-42.480,-40.039,0.000
1745696342.467,-74.707,-124.023,-83.496,-83.008,0.000
1745696342.471,-50.781,-73.242,-48.340,-48.828,0.000
1745696342.475,-1.953,39.062,2.930,2.441,0.000
1745696342.479,-12.207,14.160,-14.160,-13.184,0.000
1745696342.483,-57.617,-102.051,-70.312,-65.430,0.000
1745696342.486,-56.641,-92.773,-65.430,-53.711,0.000
1745696342.490,-8.301,31.250,-2.441,9.277,0.000
1745696342.494,-0.977,61.523,6.348,12.207,0.000
1745696342.498,-44.922,-62.500,-60.059,-45.410,0.000
1745696342.502,-56.641,-121.582,-85.449,-59.570,0.000
1745696342.506,-15.625,-11.719,-16.113,-0.977,0.000
1745696342.510,7.812,57.129,18.555,31.738,0.000
1745696342.514,-31.250,-34.668,-38.574,-23.438,0.000
1745696342.518,-58.105,-117.676,-82.031,-64.453,0.000
1745696342.522,-24.414,-42.480,-38.086,-27.344,0.000
1745696342.526,7.324,47.363,10.742,15.625,0.000
1745696342.529,-17.578,-6.348,-25.879,-12.695,0.000
1745696342.533,-59.082,-109.863,-81.055,-68.848,0.000
1745696342.537,-41.504,-76.172,-51.758,-50.781,0.000
1745696342.541,4.883,58.594,7.324,8.301,0.000
1745696342.545,-6.836,49.805,-6.348,-5.859,0.000
1745696342.549,-59.082,-99.609,-70.801,-62.500,0.000
1745696342.553,-58.594,-113.281,-65.918,-51.758,0.000
1745696342.557,-10.742,10.254,0.000,5.859,0.000
1745696342.561,-5.371,36.621,5.371,0.488,0.000
1745696342.565,-46.875,-72.266,-55.664,-64.453,0.000
1745696342.568,-60.059,-107.910,-78.613,-84.473,0.000
1745696342.572,-20.996,1.465,-17.578,-27.832,0.000
1745696342.576,0.977,54.199,20.020,2.930,0.000
1745696342.580,-33.691,-39.551,-37.109,-41.504,0.000
1745696342.584,-62.012,-124.512,-82.031,-81.543,0.000
1745696342.588,-32.715,-36.133,-40.039,-38.086,0.000
1745696342.592,-1.953,65.430,-0.977,10.254,0.000
1745696342.596,-32.227,-17.090,-29.297,-22.461,0.000
1745696342.600,-73.242,-122.070,-82.031,-72.266,0.000
1745696342.604,-56.152,-82.031,-70.801,-51.270,0.000
1745696342.608,-6.836,30.762,-3.906,12.695,0.000
1745696342.611,-11.230,25.391,-4.883,4.395,0.000
1745696342.615,-58.594,-89.844,-71.777,-57.129,0.000
1745696342.619,-61.035,-105.469,-74.707,-59.082,0.000
1745696342.623,-18.555,4.395,-3.906,5.859,0.000
1745696342.627,-6.348,43.457,6.836,16.113,0.000
1745696342.631,-42.969,-45.898,-56.641,-52.246,0.000
1745696342.635,-61.035,-88.867,-79.590,-73.242,0.000
1745696342.639,-20.508,-4.883,-27.832,-21.484,0.000
1745696342.643,6.836,47.363,4.395,1.953,0.000
1745696342.647,-32.715,-20.996,-49.316,-48.340,0.000
1745696342.651,-67.383,-105.957,-100.098,-90.332,0.000
1745696342.654,-37.109,-52.246,-58.105,-59.570,0.000
1745696342.658,-2.930,53.223,-6.348,-13.184,0.000
1745696342.662,-23.438,13.184,-34.180,-37.598,0.000
1745696342.666,-64.453,-96.680,-94.727,-92.285,0.000
1745696342.670,-56.641,-65.918,-81.055,-73.242,0.000
1745696342.674,-9.277,51.758,-19.531,-8.301,0.000
1745696342.678,-4.395,48.340,-21.484,-9.277,0.000
1745696342.682,-45.410,-51.758,-78.613,-61.523,0.000
1745696342.686,-53.223,-81.543,-83.984,-65.430,0.000
1745696342.690,-3.418,16.113,-22.949,-4.883,0.000
1745696342.693,13.184,57.617,3.418,15.137,0.000
1745696342.697,-36.133,-52.734,-53.223,-48.340,0.000
1745696342.701,-59.082,-110.840,-89.355,-82.520,0.000
1745696342.705,-20.996,-13.184,-38.086,-33.691,0.000
1745696342.709,4.883,64.453,0.977,2.441,0.000
1745696342.713,-20.508,-9.277,-42.969,-32.227,0.000
1745696342.717,-51.270,-97.168,-85.449,-73.730,0.000
1745696342.721,-36.133,-48.828,-55.176,-43.945,0.000
1745696342.725,1.953,54.688,-1.953,13.672,0.000
1745696342.729,-5.371,38.574,-21.973,-11.230,0.000
1745696342.733,-48.828,-79.102,-84.961,-73.730,0.000
1745696342.736,-43.945,-90.820,-75.684,-61.035,0.000
1745696342.740,4.395,25.391,-8.301,2.930,0.000
1745696342.744,8.789,40.527,1.465,6.836,0.000
1745696342.748,-35.645,-62.500,-63.477,-52.734,0.000
1745696342.752,-48.828,-94.238,-88.379,-68.848,0.000
1745696342.756,-4.883,0.977,-26.367,-14.648,0.000
1745696342.760,15.625,52.734,2.441,4.395,0.000
1745696342.764,-26.855,-41.992,-48.828,-48.828,0.000
1745696342.768,-57.129,-113.281,-80.078,-76.172,0.000
1745696342.772,-19.531,-30.273,-35.645,-30.762,0.000
1745696342.776,16.113,79.590,12.695,11.230,0.000
1745696342.779,-9.766,9.277,-21.973,-14.648,0.000
1745696342.783,-55.176,-118.164,-79.102,-62.500,0.000
1745696342.787,-45.410,-71.777,-51.758,-37.109,0.000
1745696342.791,2.441,53.711,9.766,20.508,0.000
1745696342.795,-10.254,24.902,-5.859,-6.348,0.000
1745696342.799,-61.035,-98.145,-68.848,-67.383,0.000
1745696342.803,-60.059,-88.867,-68.848,-63.965,0.000
1745696342.807,-12.695,26.855,-6.836,-0.977,0.000
1745696342.811,-3.418,57.129,2.930,13.672,0.000
1745696342.815,-41.504,-60.547,-61.523,-48.828,0.000
1745696342.818,-57.617,-111.328,-86.426,-68.359,0.000
1745696342.822,-22.949,8.301,-19.531,-18.066,0.000
1745696342.826,0.488,71.777,14.648,10.742,0.000
1745696342.830,-34.180,-41.504,-42.480,-34.180,0.000
1745696342.834,-62.988,-121.094,-79.590,-72.754,0.000
1745696342.838,-28.320,-38.574,-38.086,-29.297,0.000
1745696342.842,7.812,55.176,6.836,18.066,0.000
1745696342.846,-20.508,0.977,-20.996,-12.207,0.000
1745696342.850,-63.965,-99.121,-75.195,-70.801,0.000
1745696342.854,-45.410,-71.777,-54.688,-49.805,0.000
1745696342.858,-0.488,35.156,11.230,10.742,0.000
1745696342.861,-8.301,24.414,-2.930,-2.930,0.000
1745696342.865,-55.176,-89.355,-73.730,-66.895,0.000
1745696342.869,-57.129,-86.914,-68.848,-66.895,0.000
1745696342.873,-10.254,41.504,-4.883,-0.488,0.000
1745696342.877,-1.465,45.898,0.977,15.137,0.000
1745696342.881,-44.922,-80.566,-54.199,-46.387,0.000
1745696342.885,-66.406,-124.023,-77.637,-71.289,0.000
1745696342.889,-30.273,-24.414,-25.879,-22.461,0.000
1745696342.893,-4.395,42.480,8.789,4.395,0.000
1745696342.897,-36.621,-36.621,-34.180,-36.133,0.000
1745696342.901,-65.918,-121.582,-75.684,-73.242,0.000
1745696342.904,-32.715,-56.641,-46.387,-34.668,0.000
1745696342.908,3.418,47.363,0.488,13.672,0.000
1745696342.912,-17.090,-3.418,-22.461,-15.625,0.000
1745696342.916,-62.012,-96.680,-75.195,-74.219,0.000
1745696342.920,-56.152,-73.730,-66.406,-64.453,0.000
1745696342.924,-15.625,11.230,-14.160,-9.766,0.000
1745696342.928,-20.996,18.066,-4.883,-5.859,0.000
1745696342.932,-65.430,-82.520,-62.988,-68.848,0.000
1745696342.936,-68.359,-109.375,-78.125,-79.102,0.000
1745696342.940,-23.926,-1.953,-22.949,-20.996,0.000
1745696342.943,-5.859,38.574,5.859,-6.348,0.000
1745696342.947,-46.875,-62.500,-48.828,-57.129,0.000
1745696342.951,-75.684,-115.723,-85.938,-88.379,0.000
1745696342.955,-39.062,-35.645,-31.738,-36.621,0.000
1745696342.959,-5.859,37.598,10.254,0.000,0.000
1745696342.963,-31.738,-14.648,-32.227,-41.992,0.000
1745696342.967,-64.941,-103.516,-84.473,-81.055,0.000
1745696342.971,-40.039,-63.965,-49.805,-46.387,0.000
1745696342.975,11.230,45.410,20.020,20.508,0.000
1745696342.979,-5.859,12.207,0.488,0.000,0.000
1745696342.983,-54.199,-113.281,-67.871,-63.965,0.000
1745696342.986,-45.410,-90.332,-59.570,-53.223,0.000
1745696342.990,4.395,45.898,4.395,-2.930,0.000
1745696342.994,3.906,38.086,2.441,-4.883,0.000
1745696342.998,-49.805,-84.961,-62.988,-60.547,0.000
1745696343.002,-56.152,-108.398,-73.730,-74.707,0.000
1745696343.006,-3.906,5.859,-7.324,-15.137,0.000
1745696343.010,13.184,74.707,19.531,9.766,0.000
1745696343.014,-32.715,-23.438,-39.062,-45.898,0.000
1745696343.018,-55.664,-118.164,-80.078,-80.566,0.000
1745696343.022,-30.273,-45.898,-27.832,-29.297,0.000
1745696343.026,-2.930,41.504,17.090,11.719,0.000
1745696343.029,-24.902,-15.137,-23.926,-32.715,0.000
1745696343.033,-61.035,-109.863,-66.406,-79.590,0.000
1745696343.037,-48.340,-62.988,-37.598,-50.293,0.000
1745696343.041,-7.324,44.922,18.555,2.930,0.000
1745696343.045,-20.020,13.184,-1.465,-19.531,0.000
1745696343.049,-71.289,-87.891,-67.871,-78.125,0.000
1745696343.053,-65.430,-73.730,-63.965,-67.871,0.000
1745696343.057,-21.973,40.039,1.953,-9.277,0.000
1745696343.061,-17.090,41.504,7.812,-5.859,0.000
1745696343.065,-65.918,-87.891,-58.594,-70.801,0.000
1745696343.068,-83.008,-123.047,-81.055,-90.332,0.000
1745696343.072,-38.086,-13.184,-17.090,-21.973,0.000
1745696343.076,-6.836,52.734,20.996,16.113,0.000
1745696343.080,-45.898,-38.574,-39.062,-39.062,0.000
1745696343.084,-78.613,-119.629,-76.660,-73.730,0.000
1745696343.088,-41.504,-41.992,-31.738,-23.438,0.000
1745696343.092,2.441,60.059,18.555,18.066,0.000
1745696343.096,-14.648,0.000,-12.695,-14.160,0.000
1745696343.100,-56.152,-107.910,-68.848,-71.289,0.000
1745696343.104,-40.039,-45.898,-46.387,-45.410,0.000
1745696343.108,10.254,62.012,3.418,14.648,0.000
1745696343.111,5.859,21.973,-4.395,1.953,0.000
1745696343.115,-43.457,-105.957,-63.965,-61.035,0.000
1745696343.119,-48.828,-108.398,-61.035,-64.941,0.000
1745696343.123,1.465,12.207,6.348,-9.766,0.000
1745696343.127,7.324,36.133,16.602,2.441,0.000
1745696343.131,-40.527,-71.289,-40.527,-43.457,0.000
1745696343.135,-50.781,-112.305,-69.824,-66.895,0.000
1745696343.139,-19.043,-9.277,-21.973,-15.625,0.000
1745696343.143,-4.395,51.270,7.812,10.742,0.000
1745696343.147,-38.086,-35.156,-42.969,-38.086,0.000
1745696343.151,-75.195,-101.074,-90.332,-87.891,0.000
1745696343.154,-53.223,-35.645,-53.223,-61.035,0.000
1745696343.158,-17.090,37.598,-2.930,-13.672,0.000
1745696343.162,-32.227,-21.484,-34.668,-36.133,0.000
1745696343.166,-73.242,-113.281,-96.191,-89.844,0.000
1745696343.170,-68.359,-78.613,-84.961,-71.289,0.000
1745696343.174,-30.273,23.926,-7.812,-7.324,0.000
1745696343.178,-27.832,13.184,-13.184,-8.789,0.000
1745696343.182,-71.777,-97.656,-79.590,-65.918,0.000
1745696343.186,-71.777,-106.934,-82.031,-68.359,0.000
1745696343.190,-13.184,12.695,-8.789,0.977,0.000
1745696343.193,7.812,48.828,11.719,18.066,0.000
1745696343.197,-35.156,-47.363,-55.176,-51.758,0.000
1745696343.201,-54.199,-96.191,-83.008,-87.891,0.000
1745696343.205,-16.113,-26.367,-33.203,-30.762,0.000
1745696343.209,15.625,48.340,2.930,19.531,0.000
1745696343.213,-22.949,-20.996,-35.645,-26.367,0.000
1745696343.217,-63.477,-113.770,-87.891,-81.543,0.000
1745696343.221,-31.738,-52.734,-60.059,-55.664,0.000
1745696343.225,-9.766,57.617,11.230,2.441,0.000
1745696343.229,-33.691,21.484,-8.301,-21.973,0.000
1745696343.233,-63.477,-106.934,-76.172,-83.984,0.000
1745696343.236,-34.180,-93.262,-61.523,-55.176,0.000
1745696343.240,12.207,31.250,7.812,11.230,0.000
1745696343.244,-4.395,52.246,7.812,5.859,0.000
1745696343.248,-32.715,-60.059,-56.641,-51.758,0.000
1745696343.252,-46.387,-116.699,-78.613,-56.152,0.000
1745696343.256,-13.672,-6.836,-17.090,-4.883,0.000
1745696343.260,9.277,50.781,9.766,24.414,0.000
1745696343.264,-44.922,-60.059,-51.270,-29.297,0.000
1745696343.268,-54.199,-125.000,-72.266,-63.477,0.000
1745696343.272,-7.324,-27.832,-19.043,-15.625,0.000
1745696343.276,21.484,63.477,22.949,20.508,0.000
1745696343.279,-16.113,-12.695,-26.855,-18.066,0.000
1745696343.283,-69.824,-124.023,-82.520,-82.520,0.000
1745696343.287,-51.758,-63.477,-42.969,-58.105,0.000
1745696343.291,-1.465,66.406,11.230,9.277,0.000
1745696343.295,-18.555,20.996,-4.395,-3.906,0.000
1745696343.299,-69.336,-119.141,-63.477,-71.289,0.000
1745696343.303,-62.988,-112.793,-67.383,-56.641,0.000
1745696343.307,-22.949,13.184,-1.953,14.648,0.000
1745696343.311,-8.789,32.227,11.719,14.160,0.000
1745696343.315,-52.246,-83.984,-55.176,-61.035,0.000
1745696343.318,-72.754,-119.629,-84.473,-72.754,0.000
1745696343.322,-26.855,-4.395,-22.461,0.488,0.000
1745696343.326,-1.465,54.688,13.184,20.508,0.000
1745696343.330,-43.945,-49.316,-43.945,-47.363,0.000
1745696343.334,-74.707,-125.000,-79.102,-84.961,0.000
1745696343.338,-37.598,-22.461,-30.762,-30.273,0.000
1745696343.342,-1.465,59.082,13.184,13.184,0.000
1745696343.346,-24.902,-20.508,-24.902,-37.598,0.000
1745696343.350,-73.242,-122.559,-79.102,-90.820,0.000
1745696343.354,-68.359,-85.938,-53.223,-63.477,0.000
1745696343.358,-0.488,40.527,15.137,2.441,0.000
1745696343.361,-21.973,15.625,-0.977,-7.812,0.000
1745696343.365,-71.777,-106.934,-66.895,-70.801,0.000
1745696343.369,-60.059,-102.051,-67.383,-69.336,0.000
1745696343.373,-10.742,18.555,-12.695,-10.254,0.000
1745696343.377,-3.418,37.598,17.578,2.930,0.000
1745696343.381,-54.199,-75.195,-41.016,-55.664,0.000
1745696343.385,-90.332,-104.492,-71.289,-79.102,0.000
1745696343.389,-39.551,-3.906,-15.137,-20.020,0.000
1745696343.393,-7.324,40.527,13.184,13.184,0.000
1745696343.397,-41.504,-49.316,-32.227,-50.293,0.000
1745696343.400,-70.801,-125.977,-70.801,-82.031,0.000
1745696343.404,-44.922,-50.293,-30.273,-34.180,0.000
1745696343.408,-18.555,44.922,18.555,13.184,0.000
1745696343.412,-36.133,-21.973,-12.207,-14.648,0.000
1745696343.416,-72.266,-125.977,-71.777,-83.496,0.000
1745696343.420,-59.082,-85.449,-50.781,-58.594,0.000
1745696343.424,-20.508,20.508,4.883,-0.488,0.000
1745696343.428,-24.902,7.812,-10.742,-20.996,0.000
1745696343.432,-56.152,-86.914,-67.383,-84.961,0.000
1745696343.436,-65.918,-90.820,-65.918,-83.984,0.000
1745696343.440,-12.207,3.418,-3.906,-17.090,0.000
1745696343.443,6.348,24.414,2.441,3.418,0.000
1745696343.447,-35.156,-76.660,-60.059,-49.805,0.000
1745696343.451,-53.223,-116.211,-85.938,-70.801,0.000
1745696343.455,-26.855,-20.508,-28.809,-13.672,0.000
1745696343.459,-2.441,53.711,16.602,19.043,0.000
1745696343.463,-39.062,-28.809,-22.949,-35.645,0.000
1745696343.467,-66.895,-108.398,-78.125,-83.496,0.000
1745696343.471,-46.875,-51.270,-56.641,-49.316,0.000
1745696343.475,0.977,32.715,13.672,15.137,0.000
1745696343.479,-16.113,4.395,-7.812,-10.742,0.000
1745696343.483,-78.613,-106.934,-76.172,-83.008,0.000
1745696343.486,-56.641,-100.098,-61.035,-70.312,0.000
1745696343.490,-11.230,17.578,-0.488,-6.836,0.000
1745696343.494,-30.273,20.020,-2.930,-4.883,0.000
1745696343.498,-58.594,-89.844,-61.035,-63.965,0.000
1745696343.502,-66.406,-109.375,-76.172,-77.148,0.000
1745696343.506,-45.898,0.000,-12.695,-20.020,0.000
1745696343.510,-4.883,42.480,16.602,0.488,0.000
1745696343.514,-39.551,-54.688,-39.551,-49.316,0.000
1745696343.518,-98.633,-119.141,-76.172,-74.219,0.000
1745696343.522,-32.715,-32.715,-33.203,-39.551,0.000
1745696343.525,8.301,58.105,15.137,-5.859,0.000
1745696343.529,-30.273,-3.906,-18.066,-42.969,0.000
1745696343.533,-58.105,-111.328,-73.730,-90.332,0.000
1745696343.537,-42.969,-78.125,-52.734,-58.594,0.000
1745696343.541,-18.066,27.832,4.883,6.348,0.000
1745696343.545,-38.574,0.488,-10.254,-9.277,0.000
1745696343.549,-62.012,-106.934,-75.684,-71.777,0.000
1745696343.553,-54.199,-100.098,-64.941,-67.383,0.000
1745696343.557,-17.578,17.090,0.000,-12.695,0.000
1745696343.561,-28.320,37.109,4.883,-3.906,0.000
1745696343.565,-64.941,-81.543,-57.129,-62.988,0.000
1745696343.568,-56.641,-113.770,-79.102,-79.590,0.000
1745696343.572,-19.043,8.301,-12.695,-19.531,0.000
1745696343.576,-9.766,64.941,15.137,16.113,0.000
1745696343.580,-39.062,-58.105,-39.551,-27.344,0.000
1745696343.584,-60.547,-128.906,-68.359,-73.730,0.000
1745696343.588,-39.062,-34.668,-25.879,-48.828,0.000
1745696343.592,2.930,42.480,19.531,11.230,0.000
1745696343.596,-15.137,-19.043,-13.184,-12.695,0.000
1745696343.600,-53.711,-112.305,-74.219,-70.801,0.000
1745696343.604,-35.156,-66.895,-51.758,-42.480,0.000
1745696343.608,8.789,48.828,12.695,17.090,0.000
1745696343.611,0.488,28.320,5.859,0.977,0.000
1745696343.615,-51.270,-87.891,-62.012,-58.594,0.000
1745696343.619,-51.758,-73.730,-68.848,-57.129,0.000
1745696343.623,-12.695,35.156,-4.883,4.883,0.000
1745696343.627,-11.230,29.785,3.418,8.301,0.000
1745696343.631,-37.598,-78.125,-57.129,-62.988,0.000
1745696343.635,-51.270,-109.375,-78.613,-84.473,0.000
1745696343.639,-21.484,-15.137,-26.855,-31.738,0.000
1745696343.643,-2.930,44.434,12.695,-7.324,0.000
1745696343.647,-38.086,-24.414,-35.156,-58.105,0.000
1745696343.650,-62.500,-105.957,-77.148,-78.125,0.000
1745696343.654,-34.180,-43.457,-35.645,-30.762,0.000
1745696343.658,0.488,44.434,9.277,5.371,0.000
1745696343.662,-20.996,-13.672,-27.344,-20.508,0.000
1745696343.666,-62.500,-100.098,-74.219,-64.941,0.000
1745696343.670,-58.594,-66.895,-51.270,-56.641,0.000
1745696343.674,-23.438,20.508,9.277,-4.395,0.000
1745696343.678,-29.297,9.766,3.906,-11.230,0.000
1745696343.682,-62.988,-92.773,-61.035,-72.266,0.000
1745696343.686,-68.359,-93.750,-59.082,-64.941,0.000
1745696343.690,-28.809,20.020,1.953,-9.766,0.000
1745696343.693,-14.648,45.410,5.859,-1.953,0.000
1745696343.697,-62.012,-66.406,-48.340,-56.152,0.000
1745696343.701,-75.684,-112.305,-65.430,-78.613,0.000
1745696343.705,-31.738,-7.324,-12.207,-23.438,0.000
1745696343.709,-12.695,54.199,20.508,9.766,0.000
1745696343.713,-36.621,-22.461,-30.762,-25.391,0.000
1745696343.717,-79.590,-112.793,-80.078,-62.988,0.000
1745696343.721,-60.059,-66.406,-46.875,-29.785,0.000
1745696343.725,-0.977,39.062,13.184,22.461,0.000
1745696343.729,-28.320,0.000,-7.324,2.930,0.000
1745696343.733,-76.172,-110.840,-62.988,-62.500,0.000
1745696343.736,-60.059,-88.867,-54.199,-47.363,0.000
1745696343.740,-17.090,27.344,5.371,16.113,0.000
1745696343.744,-30.762,28.320,5.371,0.000,0.000
1745696343.748,-66.895,-91.309,-68.848,-64.453,0.000
1745696343.752,-62.500,-110.840,-71.289,-64.453,0.000
1745696343.756,-16.602,9.766,-1.465,-2.930,0.000
1745696343.760,-6.348,58.594,10.254,6.836,0.000
1745696343.764,-46.387,-40.039,-49.316,-54.199,0.000
1745696343.768,-72.266,-108.887,-77.637,-82.031,0.000
1745696343.772,-32.715,-28.809,-27.832,-25.879,0.000
1745696343.775,6.348,46.387,16.113,19.043,0.000
1745696343.779,-31.250,-33.691,-33.691,-26.855,0.000
1745696343.783,-62.012,-130.859,-90.820,-88.379,0.000
1745696343.787,-41.016,-66.895,-46.387,-66.406,0.000
1745696343.791,2.441,47.363,16.113,22.461,0.000
1745696343.795,-8.789,11.719,-12.207,11.719,0.000
1745696343.799,-49.805,-108.398,-71.777,-60.547,0.000
1745696343.803,-47.363,-93.750,-70.801,-52.246,0.000
1745696343.807,-19.043,35.156,-15.625,2.930,0.000
1745696343.811,-19.043,38.574,-6.836,3.906,0.000
1745696343.815,-58.594,-97.168,-67.871,-56.152,0.000
1745696343.818,-66.406,-122.559,-80.078,-70.312,0.000
1745696343.822,-14.160,-0.488,-15.625,-12.207,0.000
1745696343.826,5.371,57.617,11.230,7.812,0.000
1745696343.830,-47.363,-57.129,-56.152,-48.340,0.000
1745696343.834,-76.172,-134.766,-91.797,-84.961,0.000
1745696343.838,-32.227,-35.156,-32.715,-42.480,0.000
1745696343.842,9.277,50.781,18.555,7.324,0.000
1745696343.846,-23.438,-20.508,-25.391,-27.832,0.000
1745696343.850,-65.430,-117.188,-83.008,-81.055,0.000
1745696343.854,-39.062,-53.223,-58.105,-50.293,0.000
1745696343.858,2.930,67.871,1.953,11.719,0.000
1745696343.861,-13.672,14.648,-12.695,-6.348,0.000
1745696343.865,-58.594,-114.746,-82.031,-65.430,0.000
1745696343.869,-57.129,-102.051,-75.684,-55.664,0.000
1745696343.873,-5.371,17.090,-4.883,12.207,0.000
1745696343.877,5.859,31.250,-0.488,14.648,0.000
1745696343.881,-45.898,-88.379,-72.266,-51.758,0.000
1745696343.885,-66.406,-116.699,-84.473,-68.848,0.000
1745696343.889,-21.973,-12.207,-21.973,-12.695,0.000
1745696343.893,5.371,43.457,-0.488,20.508,0.000
1745696343.897,-36.621,-52.734,-47.852,-28.809,0.000
1745696343.900,-66.895,-115.234,-79.590,-70.801,0.000
1745696343.904,-26.855,-26.367,-34.180,-28.809,0.000
1745696343.908,8.301,44.434,10.742,7.324,0.000
1745696343.912,-27.832,-27.832,-29.297,-32.715,0.000
1745696343.916,-73.242,-126.953,-93.750,-83.984,0.000
1745696343.920,-53.223,-77.637,-66.406,-55.176,0.000
1745696343.924,-3.418,44.922,10.742,14.160,0.000
1745696343.928,-15.137,20.020,-0.488,-2.441,0.000
1745696343.932,-63.477,-102.051,-71.777,-63.965,0.000
1745696343.936,-54.688,-97.656,-62.988,-57.617,0.000
1745696343.940,-2.930,28.809,3.418,3.418,0.000
1745696343.943,-1.465,61.523,13.184,15.625,0.000
1745696343.947,-50.781,-48.340,-44.922,-44.922,0.000
1745696343.951,-68.359,-114.746,-76.660,-66.895,0.000
1745696343.955,-27.344,-24.414,-30.273,-8.789,0.000
1745696343.959,0.977,49.316,17.090,29.297,0.000
1745696343.963,-36.621,-41.016,-31.738,-23.438,0.000
1745696343.967,-73.730,-128.418,-83.496,-72.266,0.000
1745696343.971,-41.504,-46.875,-48.828,-31.250,0.000
1745696343.975,4.395,59.570,0.977,30.273,0.000
1745696343.979,-11.230,2.441,-14.648,1.953,0.000
1745696343.983,-55.664,-118.652,-79.590,-68.359,0.000
1745696343.986,-38.574,-89.355,-69.336,-57.129,0.000
1745696343.990,6.348,41.016,-0.488,3.418,0.000
1745696343.994,5.859,57.617,0.977,3.906,0.000
1745696343.998,-39.062,-77.148,-65.430,-50.293,0.000
1745696344.002,-53.711,-108.887,-80.566,-61.523,0.000
1745696344.006,-10.742,18.066,-19.531,1.953,0.000
1745696344.010,1.465,42.969,2.930,33.691,0.000
1745696344.014,-41.016,-77.148,-63.477,-37.598,0.000
1745696344.018,-58.594,-128.906,-100.586,-87.891,0.000
1745696344.022,-15.625,-18.555,-32.227,-39.551,0.000
1745696344.025,9.766,70.312,16.602,13.184,0.000
1745696344.029,-23.438,-16.602,-35.645,-19.531,0.000
1745696344.033,-62.012,-118.652,-89.355,-57.129,0.000
1745696344.037,-31.738,-48.828,-51.758,-24.414,0.000
1745696344.041,14.160,79.590,13.672,18.555,0.000
1745696344.045,-10.254,29.297,-13.184,-13.184,0.000
1745696344.049,-56.152,-117.188,-85.938,-89.844,0.000
1745696344.053,-44.434,-95.215,-65.918,-71.777,0.000
1745696344.057,10.254,46.387,14.160,32.227,0.000
1745696344.061,7.812,50.293,11.719,26.367,0.000
1745696344.065,-52.734,-79.590,-65.918,-55.176,0.000
1745696344.068,-62.012,-112.305,-80.566,-59.570,0.000
1745696344.072,-8.789,3.418,-7.324,12.695,0.000
1745696344.076,9.277,56.152,11.719,23.438,0.000
1745696344.080,-43.457,-57.129,-54.688,-42.480,0.000
1745696344.084,-52.734,-136.230,-86.426,-62.988,0.000
1745696344.088,-19.043,-20.020,-28.809,-29.785,0.000
1745696344.092,12.207,77.148,24.902,11.230,0.000
1745696344.096,-21.484,-29.297,-21.484,-20.508,0.000
1745696344.100,-69.824,-144.043,-90.820,-68.848,0.000
1745696344.104,-38.086,-76.660,-53.223,-25.879,0.000
1745696344.108,0.000,52.246,28.809,30.273,0.000
1745696344.111,-15.137,13.672,-1.465,11.230,0.000
1745696344.115,-64.941,-127.441,-74.707,-53.711,0.000
1745696344.119,-59.570,-110.840,-57.129,-43.457,0.000
1745696344.123,-2.441,41.504,8.301,36.133,0.000
1745696344.127,-5.371,48.340,5.371,20.996,0.000
1745696344.131,-60.547,-93.750,-53.223,-54.688,0.000
1745696344.135,-60.059,-113.770,-73.242,-66.895,0.000
1745696344.139,-7.812,-0.977,-12.207,0.000,0.000
1745696344.143,12.695,41.504,24.414,35.645,0.000
1745696344.147,-28.320,-55.664,-34.180,-34.668,0.000
1745696344.150,-67.383,-134.766,-81.055,-83.984,0.000
1745696344.154,-27.344,-40.527,-32.715,-16.602,0.000
1745696344.158,16.602,67.871,26.367,46.387,0.000
1745696344.162,-2.441,-5.371,-12.207,6.348,0.000
1745696344.166,-46.387,-130.371,-72.754,-62.988,0.000
1745696344.170,-40.039,-77.637,-45.410,-39.551,0.000
1745696344.174,1.953,58.594,20.020,34.180,0.000
1745696344.178,-0.488,19.043,4.883,28.809,0.000
1745696344.182,-57.617,-111.816,-76.172,-41.504,0.000
1745696344.186,-63.477,-95.703,-73.730,-43.945,0.000
1745696344.190,-4.395,27.344,9.766,40.039,0.000
1745696344.193,10.742,36.133,20.020,46.875,0.000
1745696344.197,-38.574,-94.238,-51.758,-33.203,0.000
1745696344.201,-65.430,-136.719,-86.914,-61.523,0.000
1745696344.205,-25.879,-8.789,-20.020,-9.766,0.000
1745696344.209,7.812,64.453,36.133,25.879,0.000
1745696344.213,-22.949,-35.156,-29.785,-14.160,0.000
1745696344.217,-57.617,-121.094,-81.055,-56.641,0.000
1745696344.221,-15.137,-36.133,-29.785,-11.230,0.000
1745696344.225,24.902,71.777,20.996,49.805,0.000
1745696344.229,-9.766,29.785,-11.719,18.066,0.000
1745696344.233,-47.363,-90.820,-73.730,-65.918,0.000
1745696344.236,-30.762,-83.984,-66.406,-57.617,0.000
1745696344.240,7.812,44.922,-0.488,8.301,0.000
1745696344.244,1.465,51.270,-0.488,3.418,0.000
1745696344.248,-50.293,-95.215,-75.195,-60.547,0.000
1745696344.252,-57.129,-116.699,-80.078,-55.176,0.000
1745696344.256,-5.859,26.855,-4.395,20.020,0.000
1745696344.260,-0.488,66.895,17.578,24.414,0.000
1745696344.264,-57.617,-62.012,-58.105,-49.316,0.000
1745696344.268,-59.570,-120.605,-89.844,-74.219,0.000
1745696344.272,-6.348,-6.836,-23.926,-6.348,0.000
1745696344.275,8.789,85.449,19.043,31.738,0.000
1745696344.279,-22.461,-6.836,-37.109,-22.949,0.000
1745696344.283,-54.688,-127.441,-98.145,-74.707,0.000
1745696344.287,-31.250,-63.477,-48.340,-42.480,0.000
1745696344.291,25.879,67.383,13.184,20.508,0.000
1745696344.295,-3.418,16.113,-21.973,6.836,0.000
1745696344.299,-63.965,-117.188,-84.961,-65.918,0.000
1745696344.303,-43.945,-70.312,-63.477,-59.082,0.000
1745696344.307,15.625,62.500,10.742,15.625,0.000
1745696344.311,-0.488,46.875,4.883,11.230,0.000
1745696344.315,-53.711,-88.379,-73.242,-65.430,0.000
1745696344.318,-68.359,-113.281,-89.844,-69.336,0.000
1745696344.322,2.930,41.504,-13.184,5.859,0.000
1745696344.326,34.668,94.727,18.555,28.809,0.000
1745696344.330,-19.043,-60.059,-57.617,-48.340,0.000
1745696344.334,-42.969,-137.207,-96.191,-92.773,0.000
1745696344.338,-5.371,-20.020,-27.344,-29.297,0.000
1745696344.342,25.391,78.125,28.320,21.484,0.000
1745696344.346,-17.090,-10.742,-24.414,-18.555,0.000
1745696344.350,-63.965,-118.164,-95.215,-70.312,0.000
1745696344.354,-38.574,-50.781,-51.758,-44.922,0.000
1745696344.358,-3.418,68.359,20.508,19.043,0.000
1745696344.361,-28.809,31.738,-4.883,-8.789,0.000
1745696344.365,-59.570,-102.051,-76.660,-73.730,0.000
1745696344.369,-49.805,-89.355,-72.266,-63.477,0.000
1745696344.373,7.324,55.664,-4.883,10.254,0.000
1745696344.377,12.695,52.734,-0.977,3.906,0.000
1745696344.381,-47.363,-94.727,-63.477,-72.266,0.000
1745696344.385,-52.734,-128.906,-73.242,-59.570,0.000
1745696344.389,-7.324,-2.441,-8.789,7.324,0.000
1745696344.393,1.465,62.500,22.461,25.391,0.000
1745696344.397,-51.270,-42.969,-41.992,-35.156,0.000
1745696344.400,-73.242,-124.512,-90.332,-67.383,0.000
1745696344.404,-6.836,-30.762,-22.949,-5.371,0.000
1745696344.408,13.184,73.730,24.902,20.508,0.000
1745696344.412,-13.672,0.977,-23.438,-5.371,0.000
1745696344.416,-34.180,-102.051,-86.914,-56.152,0.000
1745696344.420,-21.484,-52.734,-56.641,-41.504,0.000
1745696344.424,16.113,56.641,19.043,32.227,0.000
1745696344.428,-29.785,17.578,-0.977,1.953,0.000
1745696344.432,-71.777,-120.605,-79.102,-73.242,0.000
1745696344.436,-30.273,-111.328,-72.266,-72.266,0.000
1745696344.440,20.020,31.738,11.230,9.766,0.000
1745696344.443,0.488,55.664,21.973,36.133,0.000
1745696344.447,-63.965,-74.707,-60.547,-44.434,0.000
1745696344.451,-50.781,-118.652,-75.684,-62.012,0.000
1745696344.455,-4.395,-1.465,-0.488,20.508,0.000
1745696344.459,28.320,75.684,31.250,62.988,0.000
1745696344.463,-30.273,-12.695,-24.902,-20.020,0.000
1745696344.467,-110.352,-123.535,-89.844,-109.375,0.000
1745696344.471,-26.367,-58.105,-41.016,-51.758,0.000
1745696344.475,38.574,61.035,13.672,32.227,0.000
1745696344.479,-24.414,2.930,-43.945,-10.742,0.000
1745696344.482,-49.805,-114.746,-73.730,-74.219,0.000
1745696344.486,-27.344,-78.125,-40.527,-50.293,0.000
1745696344.490,4.395,57.617,18.066,16.113,0.000
1745696344.494,-3.906,41.504,6.348,7.812,0.000
1745696344.498,-44.434,-96.680,-68.848,-74.219,0.000
1745696344.502,-44.434,-109.375,-80.078,-76.172,0.000
1745696344.506,-7.324,21.973,-0.488,-13.184,0.000
1745696344.510,-15.137,70.312,27.344,4.395,0.000
1745696344.514,-58.105,-58.594,-49.805,-51.270,0.000
1745696344.518,-63.965,-131.348,-81.543,-78.125,0.000
1745696344.522,-34.180,-21.973,-22.461,-7.324,0.000
1745696344.525,7.324,54.688,17.578,34.668,0.000
1745696344.529,-21.973,-38.574,-35.156,-37.598,0.000
1745696344.533,-45.898,-125.977,-91.797,-75.684,0.000
1745696344.537,-32.227,-53.223,-50.293,-60.059,0.000
1745696344.541,21.973,67.383,19.043,27.832,0.000
1745696344.545,13.672,17.090,-8.789,21.484,0.000
1745696344.549,-60.547,-126.465,-79.102,-66.406,0.000
1745696344.553,-67.871,-101.562,-65.918,-62.988,0.000
1745696344.557,-23.926,55.176,1.953,-0.488,0.000
1745696344.561,-47.852,48.340,-8.789,-11.230,0.000
1745696344.565,-120.605,-99.609,-79.102,-107.422,0.000
1745696344.568,-141.602,-120.117,-82.031,-138.184,0.000
1745696344.572,-124.023,4.883,-13.672,-59.082,0.000
1745696344.576,-44.434,62.500,14.160,-21.484,0.000
1745696344.580,-43.457,-49.805,-47.852,-79.102,0.000
1745696344.584,-114.746,-124.512,-84.473,-124.023,0.000
1745696344.588,-78.613,-17.578,-25.879,-88.867,0.000
1745696344.592,-62.012,66.406,17.090,-44.434,0.000
1745696344.596,-120.605,-23.438,-30.762,-97.656,0.000
1745696344.600,-175.781,-113.281,-81.055,-161.133,0.000
1745696344.604,-137.207,-37.598,-45.410,-123.535,0.000
1745696344.608,-115.234,73.242,11.719,-61.523,0.000
1745696344.611,-166.992,7.812,-11.719,-106.934,0.000
1745696344.615,-228.516,-126.465,-96.680,-202.637,0.000
1745696344.619,-280.273,-114.258,-68.359,-202.148,0.000
1745696344.623,-82.031,35.156,17.090,-110.352,0.000
1745696344.627,-17.578,62.012,8.301,-99.121,0.000
1745696344.631,-170.410,-82.520,-52.734,-156.738,0.000
1745696344.635,-177.734,-118.652,-66.406,-201.172,0.000
1745696344.639,-132.812,6.348,-10.742,-168.945,0.000
1745696344.643,-120.117,61.035,21.973,-101.562,0.000
1745696344.647,-159.180,-40.527,-33.691,-159.668,0.000
1745696344.650,-166.016,-92.773,-79.102,-206.543,0.000
1745696344.654,-127.930,-9.277,-26.367,-160.156,0.000
1745696344.658,-100.586,60.547,24.414,-116.211,0.000
1745696344.662,-137.695,-11.230,-19.531,-128.418,0.000
1745696344.666,-183.105,-121.094,-79.102,-188.965,0.000
1745696344.670,-160.645,-71.777,-62.988,-159.180,0.000
1745696344.674,-190.918,45.410,7.812,-117.676,0.000
1745696344.678,-211.426,25.879,3.418,-126.953,0.000
1745696344.682,-174.805,-93.262,-68.848,-145.508,0.000
1745696344.686,-198.730,-91.797,-62.500,-140.137,0.000
1745696344.690,-99.609,32.715,5.371,-107.422,0.000
1745696344.693,-39.062,52.734,2.441,-100.098,0.000
1745696344.697,-97.656,-43.457,-67.383,-128.906,0.000
1745696344.701,-182.129,-85.938,-77.148,-128.418,0.000
1745696344.705,-112.305,7.324,-28.809,-64.941,0.000
1745696344.709,-54.199,62.988,-9.766,-27.832,0.000
1745696344.713,0.488,-47.852,-53.223,-27.832,0.000
1745696344.717,57.617,-113.770,-99.609,-57.129,0.000
1745696344.721,-25.391,-17.090,-61.523,-70.312,0.000
1745696344.725,-82.031,66.406,-17.090,-0.488,0.000
1745696344.729,-20.508,7.324,-51.270,31.250,0.000
1745696344.732,-71.777,-107.422,-94.238,-38.574,0.000
1745696344.736,-35.645,-82.031,-64.453,-23.926,0.000
1745696344.740,146.973,46.875,-3.906,52.734,0.000
1745696344.744,166.992,59.082,-16.602,32.227,0.000
1745696344.748,20.996,-62.500,-88.867,-37.109,0.000
1745696344.752,-31.738,-108.887,-90.820,10.254,0.000
