timestamps,TP9,AF7,AF8,TP10,Right AUX
1745672541.710,-17.578,-24.902,-22.461,-42.969,0.000
1745672541.714,-31.250,-28.320,-25.879,-42.480,0.000
1745672541.718,-52.734,-28.320,-38.086,-52.734,0.000
1745672541.722,-47.852,-30.762,-41.016,-60.059,0.000
1745672541.726,-38.086,-21.973,-29.297,-62.012,0.000
1745672541.730,-44.434,-4.883,-21.484,-55.176,0.000
1745672541.734,-84.961,-19.531,-33.691,-73.242,0.000
1745672541.737,-117.676,-36.621,-46.875,-108.398,0.000
1745672541.741,-92.285,-19.043,-29.297,-103.516,0.000
1745672541.745,-85.449,-11.719,-16.602,-86.426,0.000
1745672541.749,-122.559,-28.809,-42.480,-106.445,0.000
1745672541.753,-145.020,-28.809,-53.711,-132.324,0.000
1745672541.757,-125.977,-17.578,-30.273,-127.930,0.000
1745672541.761,-107.910,-13.672,-24.902,-111.328,0.000
1745672541.765,-123.535,-7.324,-24.902,-117.188,0.000
1745672541.769,-157.715,-20.996,-27.344,-149.414,0.000
1745672541.773,-146.484,-36.621,-38.086,-150.391,0.000
1745672541.777,-103.027,-13.672,-19.531,-117.676,0.000
1745672541.780,-90.820,-3.418,-20.996,-101.074,0.000
1745672541.784,-120.117,-20.996,-47.852,-115.234,0.000
1745672541.788,-128.906,-26.855,-52.246,-123.047,0.000
1745672541.792,-84.473,-25.391,-31.250,-93.750,0.000
1745672541.796,-68.848,-15.625,-28.809,-83.008,0.000
1745672541.800,-96.191,-46.387,-55.176,-87.891,0.000
1745672541.804,-86.914,-52.246,-59.082,-77.637,0.000
1745672541.808,-54.688,-16.113,-51.270,-60.547,0.000
1745672541.812,-32.227,-28.320,-36.621,-44.434,0.000
1745672541.816,-44.922,-24.902,-24.414,-43.945,0.000
1745672541.820,-69.824,-10.742,-41.016,-45.410,0.000
1745672541.823,-41.992,-7.812,-46.387,-35.156,0.000
1745672541.827,-3.906,-1.465,-40.527,-7.812,0.000
1745672541.831,-10.742,-14.648,-48.340,1.953,0.000
1745672541.835,-41.992,-37.109,-57.617,-9.766,0.000
1745672541.839,-37.109,-49.805,-41.504,-7.812,0.000
1745672541.843,0.000,-43.457,-47.852,-4.883,0.000
1745672541.847,12.695,-32.715,-42.969,-2.441,0.000
1745672541.851,-15.625,-42.969,-37.598,-17.578,0.000
1745672541.855,-26.367,-46.387,-43.945,-19.531,0.000
1745672541.859,10.254,-32.227,-40.039,-3.906,0.000
1745672541.862,30.762,-25.391,-27.344,7.324,0.000
1745672541.866,-3.418,-33.203,-38.574,-9.766,0.000
1745672541.870,-22.949,-41.992,-60.547,-17.090,0.000
1745672541.874,13.184,-30.762,-42.480,9.277,0.000
1745672541.878,31.250,-30.273,-29.785,15.137,0.000
1745672541.882,9.277,-49.805,-40.527,-0.488,0.000
1745672541.886,-14.648,-48.340,-52.734,-2.930,0.000
1745672541.890,-5.371,-36.133,-54.688,2.930,0.000
1745672541.894,23.926,-31.250,-39.062,1.465,0.000
1745672541.898,26.367,-25.391,-31.250,8.301,0.000
1745672541.902,0.000,-37.109,-41.016,-4.883,0.000
1745672541.905,7.812,-42.969,-36.621,-7.812,0.000
1745672541.909,35.645,-25.879,-34.180,7.812,0.000
1745672541.913,20.020,-25.391,-32.227,9.766,0.000
1745672541.917,-11.719,-33.203,-33.203,1.465,0.000
1745672541.921,-26.367,-39.551,-49.805,-4.395,0.000
1745672541.925,-0.977,-40.039,-41.504,4.883,0.000
1745672541.929,21.484,-34.180,-29.785,2.441,0.000
1745672541.933,-3.418,-31.738,-47.363,-5.859,0.000
1745672541.937,-37.598,-37.109,-55.664,-19.531,0.000
1745672541.941,-22.461,-40.527,-41.992,-24.414,0.000
1745672541.945,6.836,-26.367,-23.926,-14.160,0.000
1745672541.948,-18.555,-24.902,-28.320,-23.438,0.000
1745672541.952,-61.035,-43.457,-43.457,-39.551,0.000
1745672541.956,-55.664,-38.574,-41.016,-43.457,0.000
1745672541.960,-27.344,-20.996,-21.973,-35.645,0.000
1745672541.964,-36.133,-13.672,-19.043,-43.945,0.000
1745672541.968,-87.402,-28.809,-38.086,-56.641,0.000
1745672541.972,-102.051,-40.039,-37.109,-61.523,0.000
1745672541.976,-69.824,-22.949,-22.461,-64.453,0.000
1745672541.980,-68.359,-11.230,-27.344,-62.500,0.000
1745672541.984,-101.562,-31.250,-54.688,-74.707,0.000
1745672541.987,-121.094,-49.316,-38.574,-91.309,0.000
1745672541.991,-98.633,-29.785,-19.531,-93.262,0.000
1745672541.995,-76.172,-15.625,-20.508,-107.422,0.000
1745672541.999,-97.168,-24.414,-15.625,-116.699,0.000
1745672542.003,-122.559,-33.691,-28.809,-121.094,0.000
1745672542.007,-110.352,-28.320,-23.438,-118.652,0.000
1745672542.011,-71.289,-21.973,-0.977,-102.539,0.000
1745672542.015,-75.195,-32.227,-6.836,-96.191,0.000
1745672542.019,-108.887,-48.340,-25.391,-107.910,0.000
1745672542.023,-99.121,-43.457,-28.320,-104.492,0.000
1745672542.027,-60.547,-33.203,-17.578,-75.195,0.000
1745672542.030,-49.316,-35.645,-17.578,-58.594,0.000
1745672542.034,-66.895,-45.898,-32.227,-61.523,0.000
1745672542.038,-66.895,-36.133,-51.758,-58.594,0.000
1745672542.042,-29.297,-31.250,-31.250,-40.039,0.000
1745672542.046,-7.812,-33.691,-10.742,-15.625,0.000
1745672542.050,-21.973,-30.762,-21.973,-10.742,0.000
1745672542.054,-36.621,-40.527,-28.320,-25.391,0.000
1745672542.058,-1.953,-25.879,-29.785,1.465,0.000
1745672542.062,33.691,-14.648,-27.832,29.785,0.000
1745672542.066,8.789,-35.645,-20.020,20.508,0.000
1745672542.070,-20.996,-53.223,-29.297,7.812,0.000
1745672542.073,17.090,-40.039,-28.320,20.020,0.000
1745672542.077,64.941,-20.508,-19.043,51.758,0.000
1745672542.081,59.082,-22.949,-31.250,53.223,0.000
1745672542.085,26.367,-28.809,-55.664,46.387,0.000
1745672542.089,28.809,-29.785,-40.039,61.035,0.000
1745672542.093,69.824,-24.902,-5.859,74.707,0.000
1745672542.097,75.684,-21.484,-12.207,64.941,0.000
1745672542.101,34.668,-35.645,-29.297,41.992,0.000
1745672542.105,24.902,-41.016,-37.598,33.691,0.000
1745672542.109,63.965,-24.902,-25.879,53.223,0.000
1745672542.112,77.148,-25.879,-25.879,67.871,0.000
1745672542.116,45.410,-35.645,-50.293,57.617,0.000
1745672542.120,25.391,-54.688,-61.035,30.273,0.000
1745672542.124,50.293,-39.551,-39.062,37.109,0.000
1745672542.128,68.359,-12.695,-28.809,42.969,0.000
1745672542.132,45.410,-17.578,-34.668,20.996,0.000
1745672542.136,15.625,-27.832,-39.551,9.277,0.000
1745672542.140,32.715,-24.414,-34.668,14.648,0.000
1745672542.144,64.941,-14.160,-26.855,33.203,0.000
1745672542.148,54.688,-16.602,-32.227,30.273,0.000
1745672542.152,16.602,-24.414,-49.805,14.160,0.000
1745672542.155,3.906,-34.180,-52.734,6.836,0.000
1745672542.159,30.273,-27.832,-31.250,21.973,0.000
1745672542.163,29.785,-22.949,-28.809,20.020,0.000
1745672542.167,0.977,-33.691,-37.598,0.488,0.000
1745672542.171,3.418,-31.738,-34.668,3.906,0.000
1745672542.175,33.203,-17.090,-27.344,12.207,0.000
1745672542.179,37.109,-23.926,-41.016,20.996,0.000
1745672542.183,4.883,-35.156,-41.992,16.113,0.000
1745672542.187,-22.461,-32.715,-25.391,0.488,0.000
1745672542.191,-2.930,-28.320,-22.461,1.465,0.000
1745672542.194,27.832,-25.391,-13.184,2.441,0.000
1745672542.198,14.160,-23.926,-16.602,1.465,0.000
1745672542.202,-10.742,-25.391,-26.855,-1.465,0.000
1745672542.206,-2.930,-30.762,-33.691,-4.395,0.000
1745672542.210,20.996,-30.762,-35.156,-7.812,0.000
1745672542.214,12.207,-35.156,-34.668,-5.859,0.000
1745672542.218,-17.578,-35.645,-38.086,-5.371,0.000
1745672542.222,-18.066,-36.133,-34.180,-7.324,0.000
1745672542.226,9.766,-24.902,-29.785,-0.488,0.000
1745672542.230,21.484,-14.160,-33.691,-2.441,0.000
1745672542.234,-12.695,-26.367,-33.691,-14.160,0.000
1745672542.237,-32.715,-35.645,-39.551,-18.555,0.000
1745672542.241,-4.883,-26.367,-27.344,-9.277,0.000
1745672542.245,4.395,-21.484,-1.953,-4.883,0.000
1745672542.249,-27.832,-39.062,-20.508,-11.230,0.000
1745672542.253,-50.293,-49.316,-42.969,-18.555,0.000
1745672542.257,-26.855,-40.039,-33.203,-17.578,0.000
1745672542.261,6.348,-24.902,-23.438,-7.324,0.000
1745672542.265,-11.230,-36.133,-32.227,-16.113,0.000
1745672542.269,-50.781,-49.805,-41.016,-29.297,0.000
1745672542.273,-36.133,-33.691,-38.574,-22.461,0.000
1745672542.277,3.906,-20.508,-33.203,-5.371,0.000
1745672542.280,3.418,-19.531,-36.621,-14.160,0.000
1745672542.284,-24.902,-30.273,-39.551,-35.645,0.000
1745672542.288,-26.855,-35.645,-29.297,-40.039,0.000
1745672542.292,0.488,-18.066,-21.484,-30.273,0.000
1745672542.296,0.977,-17.090,-22.461,-20.508,0.000
1745672542.300,-37.109,-35.645,-30.762,-25.391,0.000
1745672542.304,-58.594,-36.621,-39.551,-33.203,0.000
1745672542.308,-18.555,-28.809,-36.133,-29.785,0.000
1745672542.312,10.254,-27.832,-26.855,-22.461,0.000
1745672542.316,-19.531,-30.762,-36.621,-20.996,0.000
1745672542.319,-52.734,-37.598,-42.969,-29.297,0.000
1745672542.323,-35.645,-36.621,-30.762,-31.738,0.000
1745672542.327,-7.324,-26.367,-22.461,-25.391,0.000
1745672542.331,-13.672,-26.367,-14.648,-22.949,0.000
1745672542.335,-40.527,-39.062,-24.902,-37.598,0.000
1745672542.339,-37.109,-34.180,-28.320,-38.086,0.000
1745672542.343,-5.859,-25.879,-23.926,-23.438,0.000
1745672542.347,-11.719,-39.062,-27.344,-23.438,0.000
1745672542.351,-41.016,-47.852,-33.203,-31.250,0.000
1745672542.355,-42.480,-38.086,-39.551,-37.598,0.000
1745672542.359,-7.812,-29.297,-38.086,-26.855,0.000
1745672542.362,9.766,-25.391,-30.273,-12.207,0.000
1745672542.366,-29.297,-31.250,-26.855,-25.879,0.000
1745672542.370,-46.875,-36.621,-36.133,-39.551,0.000
1745672542.374,-14.160,-25.879,-30.273,-33.691,0.000
1745672542.378,-0.977,-19.531,-20.020,-19.043,0.000
1745672542.382,-17.090,-25.391,-17.578,-17.578,0.000
1745672542.386,-41.016,-26.855,-33.203,-28.320,0.000
1745672542.390,-37.109,-25.879,-38.086,-25.879,0.000
1745672542.394,-8.301,-26.855,-21.484,-24.414,0.000
1745672542.398,-18.555,-33.691,-21.484,-33.691,0.000
1745672542.402,-61.035,-45.410,-30.273,-40.039,0.000
1745672542.405,-57.617,-40.527,-33.691,-41.504,0.000
1745672542.409,-21.484,-22.949,-24.902,-33.691,0.000
1745672542.413,-24.414,-22.949,-25.391,-27.832,0.000
1745672542.417,-62.012,-34.668,-47.363,-31.738,0.000
1745672542.421,-68.848,-36.133,-47.852,-42.969,0.000
1745672542.425,-41.016,-27.344,-25.879,-41.016,0.000
1745672542.429,-31.250,-25.879,-16.602,-32.715,0.000
1745672542.433,-55.176,-24.902,-23.926,-31.250,0.000
1745672542.437,-76.660,-29.297,-40.039,-50.781,0.000
1745672542.441,-61.035,-33.203,-34.180,-48.340,0.000
1745672542.444,-43.457,-25.879,-25.879,-32.227,0.000
1745672542.448,-51.270,-22.949,-25.879,-38.574,0.000
1745672542.452,-72.266,-29.785,-26.855,-40.527,0.000
1745672542.456,-58.105,-26.855,-30.762,-34.180,0.000
1745672542.460,-14.160,-12.695,-16.602,-15.625,0.000
1745672542.464,-13.672,-14.648,-21.973,-21.973,0.000
1745672542.468,-50.781,-29.785,-38.086,-40.039,0.000
1745672542.472,-54.688,-31.738,-38.574,-28.809,0.000
1745672542.476,-19.043,-20.020,-37.109,-21.484,0.000
1745672542.480,-9.277,-15.625,-27.344,-27.344,0.000
1745672542.484,-34.668,-24.414,-31.738,-31.738,0.000
1745672542.487,-45.410,-26.855,-42.480,-37.598,0.000
1745672542.491,-16.113,-19.531,-25.879,-35.156,0.000
1745672542.495,0.977,-15.137,-17.578,-23.438,0.000
1745672542.499,-26.367,-22.949,-32.715,-30.762,0.000
1745672542.503,-50.293,-33.691,-37.109,-35.156,0.000
1745672542.507,-25.879,-23.926,-35.156,-12.207,0.000
1745672542.511,-0.488,-13.184,-32.227,-0.977,0.000
1745672542.515,-10.742,-16.113,-28.809,3.418,0.000
1745672542.519,-36.133,-26.367,-35.156,-9.766,0.000
1745672542.523,-33.691,-33.203,-34.180,-22.949,0.000
1745672542.527,-5.859,-18.555,-18.555,-9.766,0.000
1745672542.530,-11.230,-14.648,-19.531,-10.254,0.000
1745672542.534,-45.410,-35.156,-33.203,-21.973,0.000
1745672542.538,-43.945,-39.551,-37.598,-25.879,0.000
1745672542.542,-4.883,-18.066,-25.391,-18.555,0.000
1745672542.546,6.348,-9.277,-20.996,-21.973,0.000
1745672542.550,-30.762,-26.855,-35.156,-39.551,0.000
1745672542.554,-59.082,-32.227,-44.434,-50.781,0.000
1745672542.558,-34.668,-23.926,-34.180,-34.668,0.000
1745672542.562,-10.742,-15.625,-15.625,-16.113,0.000
1745672542.566,-47.852,-24.414,-24.414,-35.156,0.000
1745672542.569,-76.660,-34.668,-32.715,-54.199,0.000
1745672542.573,-65.430,-20.020,-23.438,-64.453,0.000
1745672542.577,-57.617,-21.484,-20.020,-69.824,0.000
1745672542.581,-73.730,-28.809,-26.367,-72.754,0.000
1745672542.585,-120.117,-34.180,-38.086,-93.262,0.000
1745672542.589,-125.000,-38.086,-41.504,-106.934,0.000
1745672542.593,-97.656,-23.438,-18.555,-106.934,0.000
1745672542.597,-116.211,-25.391,-4.883,-117.676,0.000
1745672542.601,-152.832,-38.574,-21.973,-133.301,0.000
1745672542.605,-159.668,-35.156,-18.555,-142.578,0.000
1745672542.609,-135.742,-30.273,0.488,-139.648,0.000
1745672542.612,-129.395,-30.273,-5.859,-133.789,0.000
1745672542.616,-162.109,-40.039,-20.508,-144.531,0.000
1745672542.620,-176.758,-38.086,-12.695,-146.973,0.000
1745672542.624,-152.344,-28.809,-5.371,-125.000,0.000
1745672542.628,-120.605,-29.297,-3.906,-114.746,0.000
1745672542.632,-134.766,-37.109,-3.906,-129.395,0.000
1745672542.636,-163.574,-50.781,-15.137,-130.371,0.000
1745672542.640,-140.137,-47.363,-35.645,-96.680,0.000
1745672542.644,-88.867,-28.320,-21.484,-81.055,0.000
1745672542.648,-83.496,-33.691,-7.812,-99.121,0.000
1745672542.652,-114.746,-48.340,-29.297,-107.910,0.000
1745672542.655,-98.633,-46.387,-27.832,-94.727,0.000
1745672542.659,-54.688,-32.227,-26.367,-73.242,0.000
1745672542.663,-41.504,-32.715,-18.555,-60.547,0.000
1745672542.667,-60.547,-42.480,-27.832,-51.270,0.000
1745672542.671,-66.895,-41.016,-48.828,-46.387,0.000
1745672542.675,-31.738,-39.062,-38.086,-32.715,0.000
1745672542.679,-6.348,-37.598,-34.668,-16.113,0.000
1745672542.683,-22.461,-37.598,-50.781,-10.742,0.000
1745672542.687,-30.273,-40.527,-70.312,-9.277,0.000
1745672542.691,-4.883,-41.992,-64.941,-1.465,0.000
1745672542.694,19.043,-34.668,-30.273,15.137,0.000
1745672542.698,0.977,-35.156,-39.551,7.812,0.000
1745672542.702,-26.855,-45.898,-64.941,10.254,0.000
1745672542.706,-3.418,-42.969,-56.152,27.344,0.000
1745672542.710,38.086,-25.391,-36.133,36.133,0.000
1745672542.714,37.598,-18.066,-43.945,27.832,0.000
1745672542.718,10.254,-24.902,-62.988,15.137,0.000
1745672542.722,10.254,-32.715,-59.570,23.438,0.000
1745672542.726,44.922,-31.250,-45.898,39.062,0.000
1745672542.730,56.152,-24.902,-35.156,33.203,0.000
1745672542.734,24.414,-31.250,-38.086,24.902,0.000
1745672542.737,12.207,-44.434,-69.336,27.832,0.000
1745672542.741,38.574,-33.203,-59.082,25.879,0.000
1745672542.745,55.664,-13.184,-32.715,33.691,0.000
1745672542.749,31.250,-18.066,-45.898,40.527,0.000
1745672542.753,9.766,-26.855,-43.457,41.016,0.000
1745672542.757,21.484,-23.438,-39.551,42.969,0.000
1745672542.761,41.992,-15.625,-33.691,62.988,0.000
1745672542.765,28.809,-18.066,-39.062,42.480,0.000
1745672542.769,-9.277,-32.715,-57.617,-0.977,0.000
1745672542.773,0.000,-34.668,-52.734,-7.324,0.000
1745672542.777,37.109,-20.996,-33.691,18.066,0.000
1745672542.780,26.855,-14.160,-25.391,28.320,0.000
1745672542.784,-9.277,-33.203,-38.574,16.602,0.000
1745672542.788,-13.184,-42.480,-45.898,23.926,0.000
1745672542.792,18.066,-27.832,-29.785,34.180,0.000
1745672542.796,28.320,-26.367,-26.367,22.461,0.000
1745672542.800,-1.465,-40.527,-38.574,7.812,0.000
1745672542.804,-23.438,-45.410,-57.617,-8.789,0.000
1745672542.808,4.395,-34.668,-42.480,-11.230,0.000
1745672542.812,27.344,-20.020,-15.625,9.766,0.000
1745672542.816,-3.906,-32.715,-41.016,-17.090,0.000
1745672542.819,-30.273,-49.316,-68.848,-41.992,0.000
1745672542.823,-12.695,-39.062,-41.992,-25.391,0.000
1745672542.827,13.672,-30.273,-29.785,-11.230,0.000
1745672542.831,0.000,-31.738,-36.621,-8.301,0.000
1745672542.835,-36.133,-44.434,-41.992,-21.973,0.000
1745672542.839,-23.926,-41.992,-45.898,-20.996,0.000
1745672542.843,5.371,-26.855,-47.852,-11.719,0.000
1745672542.847,4.883,-30.762,-33.691,-5.859,0.000
1745672542.851,-23.438,-40.527,-30.762,1.953,0.000
1745672542.855,-41.504,-38.574,-52.734,-4.883,0.000
1745672542.859,-14.160,-37.109,-42.480,-13.672,0.000
1745672542.862,3.418,-34.180,-20.020,-18.555,0.000
1745672542.866,-27.344,-29.297,-25.879,-21.973,0.000
1745672542.870,-47.363,-42.480,-37.598,-25.391,0.000
1745672542.874,-16.602,-33.203,-26.367,-15.625,0.000
1745672542.878,-2.930,-18.066,-20.996,-13.184,0.000
1745672542.882,-30.273,-32.227,-43.457,-31.738,0.000
1745672542.886,-46.875,-42.480,-57.617,-38.086,0.000
1745672542.890,-31.250,-40.039,-55.176,-32.715,0.000
1745672542.894,-3.418,-31.250,-47.363,-20.996,0.000
1745672542.898,-5.859,-31.250,-40.527,-14.648,0.000
1745672542.901,-36.621,-33.203,-43.945,-23.438,0.000
1745672542.905,-35.645,-38.086,-41.504,-26.855,0.000
1745672542.909,3.418,-34.668,-40.039,-20.508,0.000
1745672542.913,9.766,-22.949,-37.598,-10.742,0.000
1745672542.917,-25.879,-37.109,-28.809,-18.555,0.000
1745672542.921,-38.574,-57.617,-37.598,-36.621,0.000
1745672542.925,-9.766,-41.992,-35.645,-25.391,0.000
1745672542.929,2.441,-23.926,-28.320,-12.207,0.000
1745672542.933,-23.438,-32.715,-45.410,-23.438,0.000
1745672542.937,-43.457,-43.457,-52.734,-35.645,0.000
1745672542.941,-17.090,-32.715,-33.203,-23.926,0.000
1745672542.944,9.277,-17.578,-18.555,-12.695,0.000
1745672542.948,-16.113,-25.391,-32.715,-20.508,0.000
1745672542.952,-46.387,-44.434,-49.805,-39.062,0.000
1745672542.956,-36.133,-53.711,-47.363,-52.246,0.000
1745672542.960,-1.953,-25.391,-34.668,-37.598,0.000
1745672542.964,-5.859,-12.207,-28.809,-30.762,0.000
1745672542.968,-47.363,-42.969,-47.852,-42.969,0.000
1745672542.972,-50.293,-48.340,-52.734,-44.434,0.000
1745672542.976,-12.207,-26.367,-36.621,-35.645,0.000
1745672542.980,-15.625,-22.949,-34.180,-27.832,0.000
1745672542.984,-57.129,-38.086,-53.223,-26.367,0.000
1745672542.987,-67.871,-48.828,-61.035,-30.273,0.000
1745672542.991,-36.133,-33.691,-37.598,-18.066,0.000
1745672542.995,-10.742,-15.625,-25.879,-12.207,0.000
1745672542.999,-29.297,-31.250,-45.410,-37.598,0.000
1745672543.003,-46.387,-45.898,-63.477,-44.922,0.000
1745672543.007,-25.879,-38.574,-48.340,-31.250,0.000
1745672543.011,7.324,-27.344,-26.855,-22.461,0.000
1745672543.015,4.395,-27.344,-39.062,-26.855,0.000
1745672543.019,-31.250,-33.203,-56.641,-48.340,0.000
1745672543.023,-25.391,-38.574,-34.668,-45.898,0.000
1745672543.026,6.348,-37.598,-20.508,-32.715,0.000
1745672543.030,4.883,-24.902,-23.438,-34.180,0.000
1745672543.034,-31.738,-29.785,-37.109,-47.363,0.000
1745672543.038,-39.062,-39.062,-52.246,-53.711,0.000
1745672543.042,-7.324,-15.137,-51.758,-39.551,0.000
1745672543.046,4.883,-6.348,-37.109,-30.762,0.000
1745672543.050,-22.461,-33.203,-44.434,-39.062,0.000
1745672543.054,-41.016,-37.598,-53.223,-38.086,0.000
1745672543.058,-18.066,-29.297,-45.410,-41.504,0.000
1745672543.062,0.488,-30.273,-31.738,-43.945,0.000
1745672543.066,-24.902,-26.855,-31.738,-43.457,0.000
1745672543.069,-49.316,-35.156,-48.828,-56.641,0.000
1745672543.073,-36.133,-35.156,-51.758,-48.828,0.000
1745672543.077,-15.137,-19.531,-33.691,-35.645,0.000
1745672543.081,-23.926,-23.438,-17.578,-38.086,0.000
1745672543.085,-54.199,-45.898,-32.227,-37.598,0.000
1745672543.089,-49.316,-41.016,-39.551,-36.621,0.000
1745672543.093,-12.695,-18.066,-23.926,-25.879,0.000
1745672543.097,-21.484,-29.785,-26.855,-15.137,0.000
1745672543.101,-63.477,-46.387,-48.340,-33.203,0.000
1745672543.105,-65.430,-41.504,-44.922,-45.410,0.000
1745672543.109,-10.742,-22.461,-26.367,-41.016,0.000
1745672543.112,9.277,-25.391,-37.109,-48.828,0.000
1745672543.116,-31.250,-29.297,-48.828,-44.922,0.000
1745672543.120,-47.852,-27.832,-36.621,-41.504,0.000
1745672543.124,-18.066,-29.297,-25.879,-36.133,0.000
1745672543.128,1.953,-19.531,-17.578,-34.180,0.000
1745672543.132,-23.438,-23.438,-31.738,-37.109,0.000
1745672543.136,-51.758,-37.109,-37.109,-39.551,0.000
1745672543.140,-39.062,-30.762,-14.160,-45.898,0.000
1745672543.144,-10.742,-24.902,-14.160,-23.438,0.000
1745672543.148,-29.785,-35.645,-26.855,-20.508,0.000
1745672543.151,-54.199,-39.551,-28.809,-34.180,0.000
1745672543.155,-43.945,-42.969,-28.320,-38.086,0.000
1745672543.159,-16.113,-41.992,-29.785,-41.992,0.000
1745672543.163,-23.438,-35.645,-47.363,-44.922,0.000
1745672543.167,-58.594,-38.574,-52.246,-42.969,0.000
1745672543.171,-58.594,-38.574,-36.133,-36.133,0.000
1745672543.175,-22.949,-28.809,-26.855,-37.598,0.000
1745672543.179,-11.719,-22.461,-22.461,-27.832,0.000
1745672543.183,-52.734,-24.414,-34.180,-31.738,0.000
1745672543.187,-72.266,-36.621,-54.688,-36.621,0.000
1745672543.191,-37.109,-40.527,-43.945,-28.809,0.000
1745672543.194,-2.930,-26.855,-33.203,-25.391,0.000
1745672543.198,-29.297,-33.203,-37.598,-46.387,0.000
1745672543.202,-62.012,-38.086,-47.363,-55.664,0.000
1745672543.206,-37.109,-37.109,-53.223,-29.297,0.000
1745672543.210,-11.719,-25.879,-45.898,-31.738,0.000
1745672543.214,-22.461,-24.902,-40.527,-36.133,0.000
1745672543.218,-58.594,-36.133,-49.805,-47.363,0.000
1745672543.222,-56.152,-41.992,-58.105,-51.758,0.000
1745672543.226,-12.207,-30.762,-35.156,-25.391,0.000
1745672543.230,-9.277,-8.301,-12.695,-16.113,0.000
1745672543.234,-33.203,-18.066,-41.016,-24.902,0.000
1745672543.237,-39.062,-29.785,-53.223,-17.578,0.000
1745672543.241,-22.461,-25.391,-25.391,-3.418,0.000
1745672543.245,-8.789,-27.344,-16.602,-5.371,0.000
1745672543.249,-29.297,-31.738,-36.133,-16.113,0.000
1745672543.253,-49.805,-29.297,-50.781,-38.574,0.000
1745672543.257,-16.113,-12.695,-27.832,-48.828,0.000
1745672543.261,14.160,-2.930,-12.207,-37.109,0.000
1745672543.265,-5.859,-21.973,-24.414,-20.996,0.000
1745672543.269,-37.109,-37.598,-32.715,-19.043,0.000
1745672543.273,-40.527,-40.039,-33.203,-20.996,0.000
1745672543.276,-8.789,-24.414,-20.020,-14.648,0.000
1745672543.280,-18.555,-24.902,-20.020,-17.578,0.000
1745672543.284,-62.500,-47.852,-41.504,-28.809,0.000
1745672543.288,-66.895,-56.152,-40.039,-33.203,0.000
1745672543.292,-36.621,-41.992,-22.949,-19.043,0.000
1745672543.296,-21.973,-19.531,-21.484,-10.742,0.000
1745672543.300,-41.504,-32.227,-46.875,-15.625,0.000
1745672543.304,-62.500,-43.457,-42.480,-13.184,0.000
1745672543.308,-33.203,-23.438,-20.508,-11.230,0.000
1745672543.312,-4.883,-19.531,-21.484,-22.949,0.000
1745672543.316,-24.902,-26.855,-39.062,-38.086,0.000
1745672543.319,-53.223,-29.785,-58.594,-60.547,0.000
1745672543.323,-35.156,-25.391,-48.340,-61.523,0.000
1745672543.327,0.000,-21.973,-29.785,-37.109,0.000
1745672543.331,-33.691,-28.809,-36.621,-43.457,0.000
1745672543.335,-85.449,-41.992,-44.922,-71.289,0.000
1745672543.339,-79.102,-42.480,-38.086,-77.148,0.000
1745672543.343,-47.363,-26.855,-23.438,-72.754,0.000
1745672543.347,-56.152,-31.250,-18.555,-71.289,0.000
1745672543.351,-87.402,-39.062,-32.715,-81.543,0.000
1745672543.355,-104.004,-27.344,-40.039,-103.516,0.000
1745672543.359,-79.590,-20.996,-38.574,-101.562,0.000
1745672543.362,-78.125,-34.180,-33.691,-98.145,0.000
1745672543.366,-124.512,-44.434,-36.133,-102.051,0.000
1745672543.370,-139.160,-38.086,-46.875,-104.004,0.000
1745672543.374,-118.652,-36.621,-55.176,-113.770,0.000
1745672543.378,-103.027,-32.227,-33.203,-111.328,0.000
1745672543.382,-121.094,-41.016,-28.320,-109.863,0.000
1745672543.386,-167.969,-60.547,-54.688,-129.883,0.000
1745672543.390,-147.461,-48.340,-58.594,-127.441,0.000
1745672543.394,-102.051,-34.180,-28.320,-103.516,0.000
1745672543.398,-118.164,-42.480,-26.367,-110.840,0.000
1745672543.401,-133.789,-43.945,-48.340,-112.305,0.000
1745672543.405,-126.953,-42.480,-58.105,-92.285,0.000
1745672543.409,-99.609,-55.176,-38.086,-79.590,0.000
1745672543.413,-76.660,-38.574,-12.695,-71.289,0.000
1745672543.417,-96.191,-21.484,-32.227,-74.219,0.000
1745672543.421,-102.539,-26.855,-34.180,-92.773,0.000
1745672543.425,-57.129,-17.578,-38.086,-77.148,0.000
1745672543.429,-40.039,-29.297,-28.320,-38.086,0.000
1745672543.433,-78.613,-47.852,-26.367,-47.363,0.000
1745672543.437,-91.309,-47.852,-43.457,-67.383,0.000
1745672543.441,-48.828,-39.551,-43.945,-59.082,0.000
1745672543.444,-16.113,-45.898,-43.457,-47.363,0.000
1745672543.448,-33.203,-38.574,-40.527,-49.805,0.000
1745672543.452,-56.641,-36.621,-37.598,-45.898,0.000
1745672543.456,-41.016,-60.547,-45.410,-40.527,0.000
1745672543.460,-3.906,-41.016,-33.691,-31.738,0.000
1745672543.464,-10.742,-13.672,-22.949,-27.344,0.000
1745672543.468,-47.363,-36.133,-40.039,-41.504,0.000
1745672543.472,-47.852,-47.852,-51.758,-36.621,0.000
1745672543.476,-3.418,-33.203,-44.922,-10.742,0.000
1745672543.480,7.812,-30.762,-32.715,-5.371,0.000
1745672543.484,-28.320,-47.363,-25.879,-16.113,0.000
1745672543.487,-41.504,-39.551,-46.875,-22.461,0.000
1745672543.491,-6.348,-32.715,-46.387,-14.160,0.000
1745672543.495,15.625,-28.809,-25.391,0.977,0.000
1745672543.499,-14.648,-10.254,-25.391,-1.953,0.000
1745672543.503,-40.039,-21.973,-42.969,-11.719,0.000
1745672543.507,-14.648,-27.344,-44.434,-3.418,0.000
1745672543.511,14.648,-15.137,-27.832,9.766,0.000
1745672543.515,0.000,-18.555,-30.273,10.742,0.000
1745672543.519,-23.926,-42.969,-55.664,-6.348,0.000
1745672543.523,-16.602,-51.758,-45.410,-9.766,0.000
1745672543.526,13.184,-32.715,-32.227,5.371,0.000
1745672543.530,14.648,-34.180,-32.715,8.301,0.000
1745672543.534,-18.066,-49.316,-28.809,1.465,0.000
1745672543.538,-24.414,-50.781,-28.809,4.883,0.000
1745672543.542,0.488,-37.109,-23.438,4.883,0.000
1745672543.546,3.906,-29.785,-21.973,-4.395,0.000
1745672543.550,-25.391,-43.457,-39.062,-14.160,0.000
1745672543.554,-35.156,-49.805,-45.898,-16.602,0.000
1745672543.558,-2.441,-31.250,-19.043,-5.371,0.000
1745672543.562,22.461,-14.648,-21.973,1.465,0.000
1745672543.566,-4.395,-36.133,-39.551,-7.812,0.000
1745672543.569,-38.086,-55.176,-37.598,-20.020,0.000
1745672543.573,-17.090,-49.316,-33.203,-1.953,0.000
1745672543.577,18.555,-41.016,-27.344,14.648,0.000
1745672543.581,3.418,-40.527,-26.367,9.277,0.000
1745672543.585,-31.250,-39.551,-30.762,2.930,0.000
1745672543.589,-22.461,-29.785,-34.180,6.836,0.000
1745672543.593,8.789,-26.855,-22.949,-0.977,0.000
1745672543.597,5.859,-27.832,-19.043,-9.766,0.000
1745672543.601,-27.344,-34.668,-49.316,-5.859,0.000
1745672543.605,-30.273,-36.133,-49.316,-12.695,0.000
1745672543.609,-1.465,-30.273,-18.066,-14.160,0.000
1745672543.612,5.371,-28.320,-20.020,-15.625,0.000
1745672543.616,-29.785,-36.133,-33.203,-25.391,0.000
1745672543.620,-45.898,-48.828,-42.480,-29.785,0.000
1745672543.624,-18.555,-46.875,-36.133,-21.973,0.000
1745672543.628,1.465,-29.785,-28.809,-8.301,0.000
1745672543.632,-19.531,-39.551,-48.828,-27.832,0.000
1745672543.636,-51.270,-48.340,-55.664,-48.340,0.000
1745672543.640,-40.039,-42.969,-32.715,-41.992,0.000
1745672543.644,-2.441,-29.785,-18.555,-25.879,0.000
1745672543.648,-17.090,-26.855,-31.250,-23.438,0.000
1745672543.651,-54.199,-29.297,-42.480,-30.762,0.000
1745672543.655,-51.270,-47.363,-42.480,-15.137,0.000
1745672543.659,-33.691,-49.805,-32.715,-12.695,0.000
1745672543.663,-21.973,-19.531,-15.137,-20.508,0.000
1745672543.667,-50.293,-38.574,-35.645,-30.273,0.000
1745672543.671,-62.012,-53.711,-51.758,-40.527,0.000
1745672543.675,-23.926,-30.762,-28.320,-31.250,0.000
1745672543.679,-29.785,-17.578,-20.996,-27.832,0.000
1745672543.683,-75.195,-30.273,-38.574,-37.109,0.000
1745672543.687,-94.727,-41.504,-45.898,-46.387,0.000
1745672543.691,-61.035,-30.273,-41.504,-46.387,0.000
1745672543.694,-26.855,-20.020,-44.434,-44.434,0.000
1745672543.698,-50.781,-26.367,-41.992,-54.688,0.000
1745672543.702,-82.031,-30.273,-43.457,-67.871,0.000
1745672543.706,-58.594,-35.645,-61.035,-75.195,0.000
1745672543.710,-27.344,-32.227,-49.316,-82.031,0.000
1745672543.714,-33.203,-35.645,-42.969,-73.242,0.000
1745672543.718,-49.316,-38.574,-38.574,-56.641,0.000
1745672543.722,-41.992,-22.461,-21.973,-56.641,0.000
1745672543.726,-17.090,-16.602,-26.367,-50.293,0.000
1745672543.730,-10.254,-20.020,-33.691,-30.762,0.000
1745672543.734,-41.992,-23.926,-41.992,-41.016,0.000
1745672543.737,-56.152,-50.781,-37.109,-47.363,0.000
1745672543.741,-28.809,-56.152,-34.668,-36.621,0.000
1745672543.745,-11.230,-5.371,-31.250,-21.484,0.000
1745672543.749,-31.250,-9.766,-35.645,-17.578,0.000
1745672543.753,-55.664,-51.270,-48.828,-34.180,0.000
1745672543.757,-32.227,-34.180,-42.480,-35.645,0.000
1745672543.761,-11.719,-10.742,-29.785,-31.738,0.000
1745672543.765,-26.367,-20.020,-24.902,-29.785,0.000
1745672543.769,-53.223,-34.180,-33.203,-37.109,0.000
1745672543.773,-49.316,-28.320,-38.574,-39.551,0.000
1745672543.776,-15.137,-15.137,-38.574,-24.902,0.000
1745672543.780,-8.301,-20.996,-43.945,-12.695,0.000
1745672543.784,-40.039,-41.504,-36.621,-31.250,0.000
1745672543.788,-48.828,-42.480,-32.227,-39.551,0.000
1745672543.792,-19.043,-26.367,-22.949,-26.855,0.000
1745672543.796,-11.719,-27.344,-24.902,-25.391,0.000
1745672543.800,-34.180,-35.645,-41.016,-40.039,0.000
1745672543.804,-49.316,-41.016,-50.781,-48.340,0.000
1745672543.808,-36.133,-32.227,-40.039,-45.898,0.000
1745672543.812,-15.137,-18.555,-21.484,-35.156,0.000
1745672543.816,-33.203,-38.574,-32.715,-33.203,0.000
1745672543.819,-57.617,-56.152,-40.039,-44.922,0.000
1745672543.823,-44.434,-35.645,-36.133,-47.852,0.000
1745672543.827,-10.742,-23.926,-34.180,-36.133,0.000
1745672543.831,-18.555,-29.785,-52.734,-25.879,0.000
1745672543.835,-56.152,-35.645,-54.688,-32.715,0.000
1745672543.839,-50.781,-31.250,-35.156,-30.762,0.000
1745672543.843,-22.461,-31.250,-32.715,-23.438,0.000
1745672543.847,-21.973,-35.156,-33.203,-24.414,0.000
1745672543.851,-53.223,-41.992,-35.645,-30.273,0.000
1745672543.855,-66.406,-41.992,-40.527,-38.086,0.000
1745672543.858,-26.367,-35.156,-39.551,-37.598,0.000
1745672543.862,0.488,-31.250,-41.992,-17.090,0.000
1745672543.866,-29.785,-37.109,-42.969,-11.230,0.000
1745672543.870,-60.547,-52.246,-40.527,-35.645,0.000
1745672543.874,-32.227,-37.109,-39.062,-26.855,0.000
1745672543.878,0.488,-20.020,-27.344,-13.184,0.000
1745672543.882,-21.973,-30.273,-26.367,-17.090,0.000
1745672543.886,-41.992,-33.203,-41.504,-15.625,0.000
1745672543.890,-20.508,-32.227,-43.945,-9.766,0.000
1745672543.894,0.000,-33.203,-36.133,-14.648,0.000
1745672543.898,-5.371,-23.438,-30.762,-19.043,0.000
1745672543.901,-37.109,-37.598,-41.016,-23.926,0.000
1745672543.905,-42.969,-38.086,-44.434,-18.066,0.000
1745672543.909,-12.207,-31.738,-22.949,-16.602,0.000
1745672543.913,0.488,-23.438,-14.648,-23.926,0.000
1745672543.917,-26.855,-21.484,-21.973,-19.531,0.000
1745672543.921,-42.480,-43.945,-41.992,-27.344,0.000
1745672543.925,-15.137,-44.922,-37.109,-23.926,0.000
1745672543.929,1.953,-25.879,-20.996,-17.090,0.000
1745672543.933,-27.344,-31.250,-38.574,-23.438,0.000
1745672543.937,-50.293,-36.621,-41.992,-23.926,0.000
1745672543.941,-29.785,-34.668,-31.738,-25.391,0.000
1745672543.944,-10.254,-31.738,-29.297,-28.320,0.000
1745672543.948,-25.391,-34.180,-28.320,-26.855,0.000
1745672543.952,-60.547,-41.016,-57.129,-36.133,0.000
1745672543.956,-52.734,-40.527,-50.293,-40.527,0.000
1745672543.960,-19.531,-27.344,-9.766,-28.809,0.000
1745672543.964,-25.879,-19.043,-12.695,-22.949,0.000
1745672543.968,-52.734,-27.344,-35.156,-37.109,0.000
1745672543.972,-49.805,-37.109,-43.457,-49.316,0.000
1745672543.976,-16.113,-33.203,-35.645,-45.410,0.000
1745672543.980,-1.953,-21.484,-28.320,-43.945,0.000
1745672543.983,-34.180,-32.227,-36.621,-38.574,0.000
1745672543.987,-62.012,-46.875,-50.781,-41.016,0.000
1745672543.991,-31.250,-34.668,-45.898,-41.992,0.000
1745672543.995,-9.277,-29.297,-41.504,-32.715,0.000
1745672543.999,-31.250,-39.062,-48.340,-25.391,0.000
1745672544.003,-53.711,-41.016,-58.594,-34.668,0.000
1745672544.007,-34.180,-28.809,-48.340,-36.621,0.000
1745672544.011,-6.836,-18.555,-31.250,-18.066,0.000
1745672544.015,-28.320,-29.785,-46.875,-21.973,0.000
1745672544.019,-57.617,-43.945,-47.363,-35.156,0.000
1745672544.023,-39.551,-43.457,-39.551,-26.367,0.000
1745672544.026,-4.883,-22.949,-42.969,-17.090,0.000
1745672544.030,-4.883,-14.160,-20.508,-16.602,0.000
1745672544.034,-36.133,-30.273,-18.066,-17.090,0.000
1745672544.038,-41.016,-38.574,-35.645,-26.367,0.000
1745672544.042,-8.301,-28.320,-33.203,-31.738,0.000
1745672544.046,0.000,-22.461,-21.484,-31.250,0.000
1745672544.050,-29.785,-37.109,-34.668,-45.898,0.000
1745672544.054,-45.410,-40.039,-44.434,-42.480,0.000
1745672544.058,-18.555,-27.832,-38.086,-31.738,0.000
1745672544.062,1.465,-22.461,-41.992,-31.250,0.000
1745672544.066,-29.785,-37.598,-41.504,-41.016,0.000
1745672544.069,-51.758,-44.922,-35.645,-40.039,0.000
1745672544.073,-32.227,-29.785,-26.855,-29.785,0.000
1745672544.077,-8.301,-20.020,-20.996,-29.785,0.000
1745672544.081,-17.578,-26.855,-20.020,-23.438,0.000
1745672544.085,-57.617,-37.109,-33.203,-41.992,0.000
1745672544.089,-57.129,-44.922,-45.898,-59.570,0.000
1745672544.093,-20.996,-21.973,-36.133,-46.387,0.000
1745672544.097,-20.996,-10.254,-30.273,-41.992,0.000
1745672544.101,-58.105,-32.715,-41.016,-54.199,0.000
1745672544.105,-71.289,-46.387,-45.898,-47.852,0.000
1745672544.108,-42.480,-39.062,-44.434,-43.457,0.000
1745672544.112,-25.879,-25.391,-35.645,-46.875,0.000
1745672544.116,-52.246,-27.832,-42.969,-53.711,0.000
1745672544.120,-75.195,-31.250,-64.453,-62.500,0.000
1745672544.124,-49.805,-23.926,-51.270,-52.246,0.000
1745672544.128,-20.996,-20.996,-40.527,-32.227,0.000
1745672544.132,-46.387,-35.156,-52.734,-50.781,0.000
1745672544.136,-74.219,-45.898,-36.621,-66.406,0.000
1745672544.140,-65.430,-52.246,-38.086,-61.523,0.000
1745672544.144,-29.785,-42.969,-27.832,-48.340,0.000
1745672544.148,-30.762,-30.273,-24.902,-38.086,0.000
1745672544.151,-75.684,-37.598,-46.875,-45.410,0.000
1745672544.155,-66.895,-35.156,-43.457,-51.758,0.000
1745672544.159,-27.344,-32.715,-39.551,-54.199,0.000
1745672544.163,-27.344,-31.738,-44.434,-54.199,0.000
1745672544.167,-64.453,-25.391,-41.016,-61.035,0.000
1745672544.171,-83.496,-33.203,-50.781,-63.965,0.000
1745672544.175,-45.410,-32.715,-58.105,-56.152,0.000
1745672544.179,-22.461,-23.926,-51.270,-53.711,0.000
1745672544.183,-54.688,-32.227,-41.992,-58.105,0.000
1745672544.187,-72.754,-45.410,-48.340,-68.848,0.000
1745672544.191,-44.922,-33.203,-47.852,-61.035,0.000
1745672544.194,-16.113,-19.531,-30.273,-42.480,0.000
1745672544.198,-46.387,-30.762,-43.945,-55.664,0.000
1745672544.202,-86.426,-47.852,-59.082,-69.824,0.000
1745672544.206,-61.523,-43.945,-39.551,-61.035,0.000
1745672544.210,-20.996,-17.090,-29.785,-49.805,0.000
1745672544.214,-26.367,-8.301,-43.457,-47.363,0.000
1745672544.218,-59.570,-24.414,-41.504,-53.711,0.000
1745672544.222,-67.383,-41.992,-38.574,-52.734,0.000
1745672544.226,-38.574,-37.109,-36.621,-47.852,0.000
1745672544.230,-23.438,-20.020,-30.273,-39.551,0.000
1745672544.233,-54.688,-28.320,-38.086,-44.434,0.000
1745672544.237,-69.824,-39.062,-51.270,-61.523,0.000
1745672544.241,-31.250,-27.832,-42.969,-48.340,0.000
1745672544.245,-12.695,-22.949,-26.855,-38.086,0.000
1745672544.249,-32.715,-23.926,-25.391,-43.457,0.000
1745672544.253,-50.293,-32.715,-41.504,-40.527,0.000
1745672544.257,-25.391,-31.250,-37.109,-39.551,0.000
1745672544.261,-6.348,-19.043,-20.020,-34.180,0.000
1745672544.265,-27.832,-19.531,-11.719,-29.785,0.000
1745672544.269,-55.176,-37.598,-38.086,-52.734,0.000
1745672544.273,-53.711,-42.480,-50.293,-67.383,0.000
1745672544.276,-15.625,-26.367,-22.461,-45.410,0.000
1745672544.280,-18.555,-28.809,-30.762,-33.203,0.000
1745672544.284,-69.336,-43.457,-41.504,-60.547,0.000
1745672544.288,-71.289,-44.434,-78.613,-59.570,0.000
1745672544.292,-36.133,-34.180,-70.801,-26.367,0.000
1745672544.296,-22.949,-24.902,-4.395,-39.551,0.000
1745672544.300,-55.176,-39.062,-7.324,-62.500,0.000
1745672544.304,-86.914,-60.059,-24.902,-67.383,0.000
1745672544.308,-47.852,-39.551,-14.648,-52.246,0.000
1745672544.312,-17.090,-24.414,-8.789,-34.180,0.000
1745672544.316,-53.711,-51.270,-24.414,-45.410,0.000
1745672544.319,-79.102,-69.336,-41.016,-50.293,0.000
1745672544.323,-53.711,-52.246,-32.227,-36.621,0.000
1745672544.327,-26.855,-47.363,-24.902,-29.785,0.000
1745672544.331,-38.086,-35.645,-29.297,-33.203,0.000
1745672544.335,-69.336,-29.785,-40.527,-48.340,0.000
1745672544.339,-63.965,-45.898,-40.527,-48.828,0.000
1745672544.343,-28.809,-43.945,-23.926,-30.273,0.000
1745672544.347,-20.996,-31.738,-35.645,-33.691,0.000
1745672544.351,-51.758,-38.574,-36.133,-36.133,0.000
1745672544.355,-69.824,-35.645,-30.762,-42.480,0.000
1745672544.358,-36.621,-19.531,-25.391,-45.898,0.000
1745672544.362,-12.207,-28.809,-18.555,-37.109,0.000
1745672544.366,-33.691,-39.551,-27.344,-42.480,0.000
1745672544.370,-52.734,-47.852,-44.434,-56.641,0.000
1745672544.374,-25.391,-39.551,-41.016,-53.711,0.000
1745672544.378,-3.906,-34.180,-28.809,-41.992,0.000
1745672544.382,-20.996,-36.133,-31.738,-40.527,0.000
1745672544.386,-50.781,-32.227,-43.945,-37.598,0.000
1745672544.390,-42.480,-31.738,-44.922,-36.621,0.000
1745672544.394,-12.695,-19.531,-21.484,-27.832,0.000
1745672544.398,-21.484,-19.043,-30.273,-29.785,0.000
1745672544.401,-42.480,-22.461,-54.688,-40.039,0.000
1745672544.405,-37.109,-39.062,-62.012,-42.969,0.000
1745672544.409,-10.742,-41.504,-36.133,-28.320,0.000
1745672544.413,-15.137,-24.902,-24.902,-30.273,0.000
1745672544.417,-46.387,-39.551,-41.992,-45.410,0.000
1745672544.421,-49.316,-41.504,-41.504,-41.016,0.000
1745672544.425,-21.973,-31.738,-35.156,-37.109,0.000
1745672544.429,-10.254,-29.785,-19.043,-27.344,0.000
1745672544.433,-26.367,-34.668,-30.273,-31.250,0.000
1745672544.437,-42.480,-40.039,-42.480,-33.691,0.000
1745672544.441,-14.160,-31.738,-35.645,-27.344,0.000
1745672544.444,13.184,-21.484,-34.180,-22.949,0.000
1745672544.448,-21.973,-23.926,-39.551,-17.578,0.000
1745672544.452,-53.711,-32.227,-37.598,-22.461,0.000
1745672544.456,-26.855,-43.945,-33.691,-17.578,0.000
1745672544.460,12.695,-32.715,-41.992,-16.113,0.000
1745672544.464,-2.441,-19.531,-42.480,-21.973,0.000
1745672544.468,-49.805,-34.668,-36.621,-33.691,0.000
1745672544.472,-47.852,-39.062,-36.621,-38.086,0.000
1745672544.476,-4.395,-26.855,-23.926,-18.555,0.000
1745672544.480,8.789,-26.855,-24.414,-16.113,0.000
1745672544.483,-18.555,-31.738,-42.480,-23.926,0.000
1745672544.487,-43.945,-38.574,-62.500,-20.508,0.000
1745672544.491,1.465,-34.180,-46.387,-10.742,0.000
1745672544.495,27.832,-21.973,-24.414,-4.883,0.000
1745672544.499,-14.648,-34.180,-33.203,-4.883,0.000
1745672544.503,-31.250,-47.852,-42.480,-4.883,0.000
1745672544.507,-7.324,-41.016,-30.762,-1.953,0.000
1745672544.511,20.508,-24.414,-22.461,4.395,0.000
1745672544.515,-10.742,-25.391,-36.621,-0.977,0.000
1745672544.519,-33.203,-36.133,-43.457,-3.906,0.000
1745672544.523,-0.488,-38.086,-38.574,-25.879,0.000
1745672544.526,-20.508,-32.227,-35.156,-39.062,0.000
1745672544.530,-13.672,-24.414,-42.480,8.301,0.000
1745672544.534,-3.418,-30.762,-53.223,3.906,0.000
1745672544.538,-28.320,-23.438,-45.410,-14.648,0.000
1745672544.542,3.418,-8.789,-27.344,11.719,0.000
1745672544.546,13.184,-22.461,-21.973,1.953,0.000
1745672544.550,-15.137,-31.738,-29.297,-42.480,0.000
1745672544.554,-62.012,-29.297,-43.945,-65.918,0.000
1745672544.558,-82.031,-26.367,-41.016,-24.902,0.000
1745672544.562,-14.160,-15.137,-20.996,-46.387,0.000
1745672544.566,-4.395,-23.926,-26.855,-61.035,0.000
1745672544.569,-62.012,-33.691,-58.594,-20.508,0.000
1745672544.573,-44.434,-19.043,-55.664,-27.344,0.000
1745672544.577,11.719,-9.766,-26.367,-17.090,0.000
1745672544.581,0.000,-24.902,-8.789,-42.480,0.000
1745672544.585,-60.547,-38.574,-26.367,-34.668,0.000
1745672544.589,-21.973,-18.555,-40.527,-8.301,0.000
1745672544.593,-5.371,-7.324,-40.039,-17.090,0.000
1745672544.597,-39.551,-24.902,-39.551,-31.250,0.000
1745672544.601,-44.922,-32.715,-28.320,-45.410,0.000
1745672544.605,-34.668,-41.016,-15.137,-8.301,0.000
1745672544.608,-5.859,-29.785,-25.391,-12.695,0.000
1745672544.612,14.648,-13.672,-18.555,-0.977,0.000
1745672544.616,-4.883,-41.504,-31.250,-5.859,0.000
1745672544.620,-45.898,-46.875,-52.246,-33.691,0.000
1745672544.624,-36.621,-31.738,-19.043,-21.973,0.000
1745672544.628,-69.336,-36.621,-27.344,-17.090,0.000
1745672544.632,-71.289,-32.227,-38.574,-9.277,0.000
1745672544.636,6.348,-29.297,-39.062,-18.066,0.000
1745672544.640,-24.902,-37.109,-28.809,-33.203,0.000
1745672544.644,-13.184,-39.551,-28.320,6.836,0.000
1745672544.648,12.695,-32.227,-36.621,15.625,0.000
1745672544.651,-17.090,-39.551,-40.039,-0.488,0.000
1745672544.655,-18.066,-49.316,-40.527,-20.508,0.000
1745672544.659,17.090,-29.785,-19.531,6.348,0.000
1745672544.663,-16.602,-9.766,-17.578,8.301,0.000
1745672544.667,-84.961,-31.250,-27.344,-4.883,0.000
1745672544.671,-15.137,-46.387,-30.762,-14.160,0.000
1745672544.675,-29.785,-24.414,-41.992,-13.672,0.000
1745672544.679,-37.109,-19.043,-34.668,-1.953,0.000
1745672544.683,50.781,-30.762,-18.555,-20.996,0.000
1745672544.687,0.977,-37.598,-31.738,-39.551,0.000
1745672544.691,10.254,-28.809,-51.270,-14.160,0.000
1745672544.694,33.203,-22.949,-18.555,-21.484,0.000
1745672544.698,-0.977,-30.762,0.000,-32.227,0.000
1745672544.702,-23.926,-39.062,-37.109,-21.973,0.000
1745672544.706,-2.441,-39.551,-52.734,-15.137,0.000
1745672544.710,36.133,-29.297,-22.949,-0.488,0.000
1745672544.714,31.738,-31.250,-27.344,-24.414,0.000
1745672544.718,-20.508,-45.410,-39.062,-41.504,0.000
1745672544.722,-11.230,-45.898,-23.926,-38.086,0.000
1745672544.726,20.020,-24.414,-29.785,-34.180,0.000
1745672544.730,32.227,-8.789,-18.555,0.977,0.000
1745672544.733,19.043,-17.578,-27.832,-20.508,0.000
1745672544.737,3.906,-27.344,-49.316,-48.340,0.000
1745672544.741,25.879,-19.043,-27.832,-15.625,0.000
1745672544.745,34.180,-15.137,-10.254,-2.441,0.000
1745672544.749,11.230,-22.949,-34.668,-27.344,0.000
1745672544.753,-5.859,-48.340,-43.457,-19.043,0.000
1745672544.757,40.527,-41.992,-6.836,3.418,0.000
1745672544.761,62.988,-15.625,-6.836,-9.766,0.000
1745672544.765,8.789,-28.320,-26.367,-17.578,0.000
1745672544.769,-25.879,-43.457,-28.320,-61.523,0.000
1745672544.773,12.695,-31.250,-29.785,-20.020,0.000
1745672544.776,-2.930,-20.996,-11.230,24.902,0.000
1745672544.780,16.113,-28.320,-7.812,-8.789,0.000
1745672544.784,-0.977,-43.457,-35.645,-29.297,0.000
1745672544.788,-15.625,-44.922,-45.898,-34.180,0.000
1745672544.792,46.875,-36.133,-33.203,-12.695,0.000
1745672544.796,34.668,-38.086,-21.973,3.906,0.000
1745672544.800,-15.137,-42.969,-29.297,0.000,0.000
1745672544.804,-21.484,-46.387,-44.434,-45.410,0.000
1745672544.808,22.461,-38.086,-35.156,-72.754,0.000
1745672544.812,-23.926,-27.832,-26.367,-32.715,0.000
1745672544.815,-37.109,-34.668,-14.160,-24.902,0.000
1745672544.819,-15.137,-42.969,-19.043,-30.273,0.000
1745672544.823,-3.906,-31.738,-26.367,-21.973,0.000
1745672544.827,26.367,-19.531,-7.812,-23.926,0.000
1745672544.831,-4.883,-31.738,-10.254,-35.645,0.000
1745672544.835,-32.715,-42.480,-38.574,-35.156,0.000
1745672544.839,-11.230,-43.457,-42.969,-22.461,0.000
1745672544.843,35.156,-28.320,-30.273,-29.785,0.000
1745672544.847,4.883,-33.203,-31.738,-31.250,0.000
1745672544.851,-43.457,-35.645,-57.129,-38.086,0.000
1745672544.855,-63.965,-39.551,-68.848,-43.457,0.000
1745672544.858,-27.832,-34.668,-37.598,-31.738,0.000
1745672544.862,17.578,-24.414,-35.156,-32.715,0.000
1745672544.866,22.461,-22.949,-31.738,-17.578,0.000
1745672544.870,-35.645,-29.785,-23.438,-28.320,0.000
1745672544.874,4.395,-26.855,-27.832,-29.785,0.000
1745672544.878,54.688,-20.996,-28.809,-26.855,0.000
1745672544.882,-19.043,-45.898,-26.855,-26.855,0.000
1745672544.886,-80.078,-45.410,-45.410,-71.777,0.000
1745672544.890,-33.203,-28.809,-53.223,-52.246,0.000
1745672544.894,17.578,-20.996,-32.227,15.137,0.000
1745672544.898,27.832,-21.973,-37.598,-8.301,0.000
1745672544.901,-11.719,-31.250,-44.922,-44.434,0.000
1745672544.905,-37.598,-23.438,-51.758,-61.035,0.000
1745672544.909,1.465,-20.508,-38.574,-21.973,0.000
1745672544.913,19.531,-23.438,-25.391,2.930,0.000
1745672544.917,-10.254,-20.508,-30.762,-31.250,0.000
1745672544.921,-46.875,-27.344,-41.992,-58.594,0.000
1745672544.925,-28.809,-31.250,-28.320,-28.809,0.000
1745672544.929,1.953,-15.137,-19.043,-14.160,0.000
1745672544.933,-40.039,-21.973,-25.391,-20.996,0.000
1745672544.937,-70.312,-43.457,-22.461,-46.387,0.000
1745672544.940,-11.719,-28.809,-50.781,-121.582,0.000
1745672544.944,2.441,-21.973,-36.133,-58.105,0.000
1745672544.948,-3.418,-37.109,-17.578,24.902,0.000
1745672544.952,-28.809,-34.668,-40.039,-14.648,0.000
1745672544.956,-59.570,-37.109,-35.645,-34.180,0.000
1745672544.960,-19.531,-24.902,-33.691,-22.949,0.000
1745672544.964,34.668,-15.625,-31.250,-14.648,0.000
1745672544.968,-7.324,-29.297,-43.457,-17.578,0.000
1745672544.972,-42.969,-41.992,-30.762,-15.625,0.000
1745672544.976,-32.227,-35.645,-7.812,-45.410,0.000
1745672544.980,-28.809,-29.785,-34.180,-61.035,0.000
1745672544.983,-10.254,-46.387,-47.852,-39.062,0.000
1745672544.987,-57.617,-53.711,-47.363,-43.945,0.000
1745672544.991,-38.086,-42.480,-43.457,-49.316,0.000
1745672544.995,-20.020,-23.438,-26.855,-23.926,0.000
1745672544.999,-75.684,-24.902,-45.898,-55.664,0.000
1745672545.003,-32.715,-41.504,-59.570,-60.547,0.000
1745672545.007,-14.160,-39.551,-28.320,-0.488,0.000
1745672545.011,-22.461,-24.414,-15.625,9.766,0.000
1745672545.015,-47.852,-30.273,-20.996,-40.039,0.000
1745672545.019,-79.590,-53.223,-37.598,-83.496,0.000
1745672545.023,-25.391,-46.387,-50.781,-34.668,0.000
1745672545.026,33.203,-28.320,-37.109,-10.742,0.000
1745672545.030,-9.277,-25.879,-20.996,-44.434,0.000
1745672545.034,-102.539,-32.715,-38.574,-53.711,0.000
1745672545.038,-77.148,-39.551,-57.617,-53.223,0.000
1745672545.042,56.641,-21.484,-43.457,-44.434,0.000
1745672545.046,-1.465,-26.367,-17.578,-20.020,0.000
1745672545.050,-104.004,-31.738,-36.133,-41.016,0.000
1745672545.054,-88.867,-41.992,-55.176,-35.156,0.000
1745672545.058,-0.977,-31.738,-30.273,-20.996,0.000
1745672545.062,51.758,-7.324,-23.926,-8.301,0.000
1745672545.065,-2.441,-28.809,-44.922,-42.480,0.000
1745672545.069,-35.156,-31.738,-40.527,-62.012,0.000
1745672545.073,-11.719,-21.973,-23.438,-13.184,0.000
1745672545.077,-14.160,-18.555,-21.973,5.371,0.000
1745672545.081,-32.227,-25.879,-32.715,6.836,0.000
1745672545.085,-53.223,-27.832,-41.504,-26.367,0.000
1745672545.089,-82.520,-31.738,-31.250,-39.551,0.000
1745672545.093,-8.301,-29.297,-29.785,-19.531,0.000
1745672545.097,24.902,-14.160,-39.551,-13.672,0.000
1745672545.101,-22.949,-19.531,-48.340,-18.555,0.000
1745672545.105,-84.961,-40.039,-37.598,-38.574,0.000
1745672545.108,-112.305,-26.367,-19.043,-31.250,0.000
1745672545.112,-7.324,-17.090,-20.020,-19.531,0.000
1745672545.116,35.156,-31.738,-31.250,-25.879,0.000
1745672545.120,-74.219,-40.527,-34.180,-29.785,0.000
1745672545.124,-25.879,-30.273,-30.762,-20.996,0.000
1745672545.128,36.621,-25.391,-32.715,-20.020,0.000
1745672545.132,-59.082,-29.297,-29.785,-20.508,0.000
1745672545.136,-79.590,-29.297,-42.969,-17.578,0.000
1745672545.140,-0.488,-30.273,-43.945,-24.414,0.000
1745672545.144,45.410,-24.902,-21.973,-26.855,0.000
1745672545.148,26.855,-16.113,-19.531,-17.090,0.000
1745672545.151,-38.086,-20.996,-37.598,-25.391,0.000
1745672545.155,-47.852,-29.785,-53.711,-30.273,0.000
1745672545.159,-18.555,-39.551,-38.086,-35.156,0.000
1745672545.163,7.324,-33.691,-30.762,-55.664,0.000
1745672545.167,-10.254,-40.527,-41.016,-62.012,0.000
1745672545.171,-67.871,-55.176,-40.527,-59.082,0.000
1745672545.175,-30.273,-43.457,-34.180,-46.875,0.000
1745672545.179,42.480,-32.715,-21.973,-23.926,0.000
1745672545.183,-32.227,-36.133,-24.902,-43.945,0.000
1745672545.187,-84.961,-44.434,-40.039,-64.453,0.000
1745672545.190,-6.836,-33.691,-37.598,-32.227,0.000
1745672545.194,24.414,-22.949,-20.508,-20.020,0.000
1745672545.198,-9.766,-26.367,-50.293,-31.738,0.000
1745672545.202,-48.828,-38.574,-65.918,-45.410,0.000
1745672545.206,-20.508,-41.504,-49.805,-39.551,0.000
1745672545.210,23.438,-21.484,-44.922,-24.414,0.000
1745672545.214,-28.320,-23.438,-43.945,-31.738,0.000
1745672545.218,-47.363,-37.598,-52.246,-42.480,0.000
1745672545.222,8.789,-34.668,-46.875,-38.086,0.000
1745672545.226,8.301,-23.438,-29.297,-39.062,0.000
1745672545.230,-12.207,-19.531,-25.391,-37.109,0.000
1745672545.233,-43.457,-36.133,-44.922,-52.734,0.000
1745672545.237,-42.969,-45.410,-53.711,-63.965,0.000
1745672545.241,-24.414,-33.691,-34.668,-42.969,0.000
1745672545.245,-10.254,-20.508,-32.715,-31.250,0.000
1745672545.249,-42.969,-29.785,-56.152,-47.852,0.000
1745672545.253,-67.383,-47.852,-46.387,-58.594,0.000
1745672545.257,-22.949,-39.551,-25.879,-52.734,0.000
1745672545.261,-0.977,-31.738,-28.809,-41.016,0.000
1745672545.265,-32.227,-44.434,-29.297,-47.852,0.000
1745672545.269,-64.453,-43.457,-43.457,-58.105,0.000
1745672545.273,-47.852,-44.434,-42.969,-41.016,0.000
1745672545.276,-9.766,-46.875,-24.414,-38.574,0.000
1745672545.280,-6.836,-30.762,-49.316,-44.434,0.000
1745672545.284,-57.129,-41.016,-53.711,-57.129,0.000
1745672545.288,-71.777,-53.223,-26.855,-54.199,0.000
1745672545.292,-26.855,-23.926,-17.578,-27.832,0.000
1745672545.296,-11.719,-22.461,-9.277,-27.344,0.000
1745672545.300,-56.152,-41.992,-21.484,-33.203,0.000
1745672545.304,-75.684,-45.410,-33.691,-39.551,0.000
1745672545.308,-42.969,-40.039,-28.320,-38.086,0.000
1745672545.312,-25.879,-27.832,-35.156,-25.391,0.000
1745672545.315,-50.293,-33.203,-47.852,-26.855,0.000
1745672545.319,-72.754,-42.969,-41.016,-39.062,0.000
1745672545.323,-59.082,-37.109,-33.691,-49.316,0.000
1745672545.327,-26.855,-27.832,-23.926,-37.598,0.000
1745672545.331,-33.691,-28.320,-34.180,-30.762,0.000
1745672545.335,-76.660,-36.621,-59.082,-46.387,0.000
1745672545.339,-69.336,-30.273,-41.504,-34.180,0.000
1745672545.343,-28.809,-24.414,-28.809,-11.719,0.000
1745672545.347,-22.949,-16.113,-34.668,-15.137,0.000
1745672545.351,-58.594,-21.484,-45.898,-35.156,0.000
1745672545.355,-61.035,-30.273,-56.641,-35.645,0.000
1745672545.358,-32.715,-27.344,-48.828,-38.086,0.000
1745672545.362,-29.297,-22.949,-33.203,-29.785,0.000
1745672545.366,-65.918,-37.598,-48.340,-26.367,0.000
1745672545.370,-93.262,-50.781,-68.359,-43.945,0.000
1745672545.374,-54.688,-24.902,-42.480,-28.320,0.000
1745672545.378,-19.531,-9.766,-25.391,-7.324,0.000
1745672545.382,-54.199,-21.484,-51.270,-19.531,0.000
1745672545.386,-83.008,-28.809,-54.688,-37.109,0.000
1745672545.390,-52.734,-18.066,-22.461,-20.996,0.000
1745672545.394,-20.996,-17.090,-16.113,-17.090,0.000
1745672545.398,-40.039,-26.367,-27.344,-28.320,0.000
1745672545.401,-97.656,-40.039,-36.133,-40.039,0.000
1745672545.405,-81.543,-39.551,-42.969,-40.527,0.000
1745672545.409,-15.625,-20.996,-19.043,-11.719,0.000
1745672545.413,-32.715,-26.367,-10.254,-24.414,0.000
1745672545.417,-93.262,-46.875,-37.109,-73.730,0.000
1745672545.421,-96.680,-40.527,-40.527,-85.449,0.000
1745672545.425,-67.383,-19.531,-18.555,-65.430,0.000
1745672545.429,-73.242,-19.531,-22.949,-69.336,0.000
1745672545.433,-123.535,-22.949,-49.316,-90.332,0.000
1745672545.437,-162.109,-24.414,-41.992,-116.211,0.000
1745672545.440,-145.020,-22.461,-33.203,-112.305,0.000
1745672545.444,-122.070,-18.555,-35.645,-82.520,0.000
1745672545.448,-154.297,-29.297,-37.109,-91.797,0.000
1745672545.452,-185.059,-45.410,-45.410,-111.328,0.000
1745672545.456,-161.133,-57.129,-41.992,-121.094,0.000
1745672545.460,-122.559,-27.344,-20.020,-108.398,0.000
1745672545.464,-108.398,-12.207,-17.578,-98.633,0.000
1745672545.468,-133.301,-33.203,-57.129,-103.516,0.000
1745672545.472,-131.348,-35.156,-56.641,-93.750,0.000
1745672545.476,-87.402,-29.297,-40.527,-72.266,0.000
1745672545.480,-63.965,-24.414,-35.645,-63.965,0.000
1745672545.483,-81.543,-42.480,-41.992,-70.801,0.000
1745672545.487,-91.309,-61.035,-60.059,-72.754,0.000
1745672545.491,-47.852,-31.250,-46.875,-60.547,0.000
1745672545.495,-14.648,-13.672,-35.645,-37.598,0.000
1745672545.499,-39.062,-27.832,-35.156,-26.855,0.000
1745672545.503,-50.293,-33.691,-65.430,-24.414,0.000
1745672545.507,-21.973,-34.668,-56.641,-16.602,0.000
1745672545.511,-2.930,-31.738,-10.742,-2.441,0.000
1745672545.515,-17.578,-24.414,-23.438,-1.465,0.000
1745672545.519,-48.828,-25.391,-42.480,-28.320,0.000
1745672545.522,-38.086,-27.832,-62.500,-30.273,0.000
1745672545.526,-1.953,-18.066,-47.852,-10.742,0.000
1745672545.530,-7.812,-16.602,-28.809,-7.324,0.000
1745672545.534,-48.340,-32.227,-48.340,-16.602,0.000
1745672545.538,-50.293,-35.156,-55.176,-21.973,0.000
1745672545.542,-19.531,-22.461,-36.133,-7.812,0.000
1745672545.546,-3.418,-13.672,-24.414,1.465,0.000
1745672545.550,-18.066,-26.367,-42.480,-8.789,0.000
1745672545.554,-38.574,-38.574,-52.246,-19.531,0.000
1745672545.558,-17.578,-24.902,-39.062,-14.160,0.000
1745672545.562,7.324,-19.531,-24.414,3.418,0.000
1745672545.565,-23.926,-26.367,-37.598,-9.277,0.000
1745672545.569,-59.082,-40.039,-55.176,-25.879,0.000
1745672545.573,-38.574,-29.297,-49.805,-12.695,0.000
1745672545.577,-0.488,-13.672,-34.668,0.000,0.000
1745672545.581,-14.648,-29.297,-28.320,-4.883,0.000
1745672545.585,-59.570,-49.805,-40.039,-20.020,0.000
1745672545.589,-47.852,-51.758,-61.523,-10.254,0.000
1745672545.593,-10.254,-36.133,-45.898,-0.977,0.000
1745672545.597,-4.883,-17.090,-11.230,-19.043,0.000
1745672545.601,-40.527,-20.996,-38.574,-32.227,0.000
1745672545.605,-45.898,-31.738,-58.594,-24.414,0.000
1745672545.608,-2.930,-16.113,-35.645,-6.836,0.000
1745672545.612,7.812,-27.344,-28.809,-2.441,0.000
1745672545.616,-36.133,-49.805,-23.438,-13.672,0.000
1745672545.620,-64.941,-29.297,-43.457,-35.645,0.000
1745672545.624,-20.020,-36.621,-50.293,-24.902,0.000
1745672545.628,-5.859,-42.480,-28.320,-28.320,0.000
1745672545.632,-28.320,-25.391,-39.062,-56.152,0.000
1745672545.636,-45.898,-34.668,-56.641,-59.570,0.000
1745672545.640,-33.691,-35.156,-48.340,-39.551,0.000
1745672545.644,-6.836,-20.020,-22.949,-24.902,0.000
1745672545.647,-24.414,-18.555,-21.973,-32.227,0.000
1745672545.651,-64.941,-43.457,-39.551,-45.410,0.000
1745672545.655,-61.523,-47.363,-47.363,-47.363,0.000
1745672545.659,-11.719,-20.508,-31.250,-29.297,0.000
1745672545.663,-3.906,-16.113,-35.156,-23.438,0.000
1745672545.667,-50.781,-24.902,-55.176,-38.086,0.000
1745672545.671,-72.754,-37.598,-55.664,-40.527,0.000
1745672545.675,-23.438,-32.715,-39.551,-26.855,0.000
1745672545.679,1.953,-27.344,-23.926,-16.602,0.000
1745672545.683,-44.922,-36.133,-33.203,-31.250,0.000
1745672545.687,-69.824,-39.062,-51.758,-43.945,0.000
1745672545.690,-48.340,-41.504,-49.805,-38.574,0.000
1745672545.694,-17.578,-29.297,-33.691,-19.531,0.000
1745672545.698,-37.598,-35.645,-40.527,-19.531,0.000
1745672545.702,-79.102,-52.246,-64.941,-31.738,0.000
1745672545.706,-46.387,-41.992,-47.852,-23.438,0.000
1745672545.710,-3.418,-41.504,-21.484,-19.531,0.000
1745672545.714,-20.020,-43.457,-42.969,-24.414,0.000
1745672545.718,-57.617,-37.109,-81.543,-42.969,0.000
1745672545.722,-66.406,-40.039,-47.852,-58.594,0.000
1745672545.726,-28.320,-32.227,-10.742,-43.945,0.000
1745672545.730,-13.184,-25.879,-25.391,-27.832,0.000
1745672545.733,-46.875,-36.621,-42.480,-41.016,0.000
1745672545.737,-75.195,-45.898,-44.434,-43.457,0.000
1745672545.741,-44.922,-39.551,-29.785,-27.344,0.000
1745672545.745,0.000,-19.531,-23.926,-17.090,0.000
1745672545.749,-39.551,-34.180,-40.527,-29.297,0.000
1745672545.753,-72.754,-40.527,-58.594,-41.504,0.000
1745672545.757,-38.086,-13.672,-47.852,-19.531,0.000
1745672545.761,-10.742,-25.391,-17.578,-14.648,0.000
1745672545.765,-32.715,-37.109,-18.555,-33.203,0.000
1745672545.769,-72.266,-42.969,-53.223,-43.945,0.000
1745672545.772,-67.871,-48.828,-51.758,-38.574,0.000
1745672545.776,-21.484,-34.180,-31.738,-24.902,0.000
1745672545.780,-16.113,-33.203,-35.156,-22.949,0.000
1745672545.784,-38.574,-31.738,-43.457,-35.645,0.000
1745672545.788,-46.387,-29.297,-49.805,-48.828,0.000
1745672545.792,-20.996,-26.367,-40.039,-34.668,0.000
1745672545.796,-9.277,-11.719,-32.227,-24.902,0.000
1745672545.800,-49.805,-22.949,-45.410,-40.039,0.000
1745672545.804,-64.941,-49.805,-65.430,-55.176,0.000
1745672545.808,-32.227,-27.832,-48.828,-40.527,0.000
1745672545.812,-4.395,-0.977,-33.203,-10.742,0.000
1745672545.815,-42.480,-36.133,-38.574,-21.484,0.000
1745672545.819,-87.891,-73.730,-33.203,-50.293,0.000
1745672545.823,-60.547,-51.758,-30.273,-51.758,0.000
1745672545.827,-21.484,-12.207,-19.531,-28.320,0.000
1745672545.831,-34.668,-4.395,-21.973,-25.879,0.000
1745672545.835,-64.941,-20.020,-53.223,-45.898,0.000
1745672545.839,-54.688,-22.461,-49.316,-26.855,0.000
1745672545.843,-18.066,-15.625,-30.762,-17.090,0.000
1745672545.847,-13.672,-19.043,-37.109,-30.762,0.000
1745672545.851,-58.105,-41.504,-44.922,-50.781,0.000
1745672545.855,-54.199,-36.133,-41.504,-50.781,0.000
1745672545.858,-12.207,-10.254,-32.715,-33.691,0.000
1745672545.862,-6.836,-10.254,-41.016,-35.156,0.000
1745672545.866,-52.246,-33.203,-38.086,-48.828,0.000
1745672545.870,-71.289,-47.852,-42.969,-55.176,0.000
1745672545.874,-29.785,-29.297,-42.480,-27.832,0.000
1745672545.878,-0.488,-11.230,-22.461,-14.160,0.000
1745672545.882,-35.156,-20.508,-36.133,-32.227,0.000
1745672545.886,-71.777,-35.156,-56.641,-42.969,0.000
1745672545.890,-33.203,-29.785,-34.668,-26.367,0.000
1745672545.894,6.836,-20.508,-19.043,-1.465,0.000
1745672545.897,-14.648,-30.762,-37.598,-10.254,0.000
1745672545.901,-60.547,-36.133,-60.059,-28.320,0.000
1745672545.905,-52.734,-30.762,-47.363,-25.879,0.000
1745672545.909,-9.277,-33.203,-10.742,-16.113,0.000
1745672545.913,-5.371,-21.973,-11.719,-10.742,0.000
1745672545.917,-47.363,-27.344,-36.133,-31.738,0.000
1745672545.921,-51.270,-36.133,-43.457,-37.109,0.000
1745672545.925,-11.719,-25.391,-35.156,-14.160,0.000
1745672545.929,-4.883,-20.020,-42.480,-19.531,0.000
1745672545.933,-39.551,-28.809,-40.527,-47.852,0.000
1745672545.937,-62.012,-35.645,-39.551,-42.480,0.000
1745672545.940,-32.715,-32.715,-31.738,-22.461,0.000
1745672545.944,-1.953,-14.648,-22.461,-20.508,0.000
1745672545.948,-17.578,-13.672,-47.852,-19.531,0.000
1745672545.952,-50.293,-34.668,-65.430,-41.016,0.000
1745672545.956,-46.875,-41.992,-47.363,-50.293,0.000
1745672545.960,-11.230,-24.902,-13.672,-23.926,0.000
1745672545.964,-20.996,-26.855,-21.973,-24.902,0.000
1745672545.968,-54.688,-41.992,-53.223,-43.945,0.000
1745672545.972,-41.016,-41.016,-49.316,-35.156,0.000
1745672545.976,-1.953,-24.902,-34.668,-18.066,0.000
1745672545.980,-8.301,-23.438,-23.926,-28.320,0.000
1745672545.983,-41.504,-36.133,-43.945,-42.480,0.000
1745672545.987,-55.176,-33.203,-58.105,-46.387,0.000
1745672545.991,-31.250,-29.297,-34.180,-27.832,0.000
1745672545.995,-10.742,-18.066,-32.227,-15.137,0.000
1745672545.999,-43.945,-42.480,-39.551,-43.457,0.000
1745672546.003,-89.844,-65.430,-37.109,-52.734,0.000
1745672546.007,-48.340,-29.785,-20.996,-33.691,0.000
1745672546.011,11.719,-9.766,-13.672,-22.949,0.000
1745672546.015,-21.973,-27.344,-19.531,-29.785,0.000
1745672546.019,-63.477,-49.316,-32.715,-42.480,0.000
1745672546.022,-50.293,-43.457,-39.551,-38.574,0.000
1745672546.026,-20.508,-28.320,-26.855,-11.230,0.000
1745672546.030,-19.043,-24.414,-26.855,-15.625,0.000
1745672546.034,-51.758,-33.203,-43.945,-40.527,0.000
1745672546.038,-55.176,-44.434,-44.922,-31.250,0.000
1745672546.042,-20.996,-29.297,-33.691,-20.996,0.000
1745672546.046,-10.254,-11.230,-40.039,-25.391,0.000
1745672546.050,-45.898,-32.715,-53.711,-34.668,0.000
1745672546.054,-66.406,-48.340,-51.270,-42.969,0.000
1745672546.058,-28.809,-50.781,-34.180,-39.551,0.000
1745672546.062,-7.812,-42.969,-28.809,-29.785,0.000
1745672546.065,-34.668,-27.344,-29.785,-26.855,0.000
1745672546.069,-58.105,-38.086,-38.086,-40.039,0.000
1745672546.073,-45.898,-43.945,-42.969,-33.203,0.000
1745672546.077,-15.625,-30.762,-20.508,-11.719,0.000
1745672546.081,-22.949,-29.785,-33.203,-31.738,0.000
1745672546.085,-57.129,-43.457,-48.828,-53.711,0.000
1745672546.089,-42.969,-30.762,-40.039,-38.086,0.000
1745672546.093,-4.395,-26.367,-21.973,-20.996,0.000
1745672546.097,-8.301,-47.363,-16.113,-23.926,0.000
1745672546.101,-44.434,-36.133,-47.363,-35.645,0.000
1745672546.105,-63.477,-33.203,-56.152,-45.898,0.000
1745672546.108,-25.391,-28.809,-31.250,-32.715,0.000
1745672546.112,-11.719,-15.625,-13.672,-20.996,0.000
1745672546.116,-45.898,-32.227,-29.297,-37.109,0.000
1745672546.120,-66.895,-40.527,-51.270,-49.316,0.000
1745672546.124,-38.574,-22.949,-21.484,-24.902,0.000
1745672546.128,-3.906,-11.719,-7.812,-11.719,0.000
1745672546.132,-38.574,-27.832,-30.273,-27.832,0.000
1745672546.136,-67.383,-36.133,-38.574,-47.363,0.000
1745672546.140,-41.992,-29.785,-37.598,-41.992,0.000
1745672546.144,-8.789,-22.461,-31.250,-32.227,0.000
1745672546.147,-18.066,-17.578,-30.273,-39.551,0.000
1745672546.151,-57.617,-34.180,-54.199,-49.316,0.000
1745672546.155,-52.734,-35.156,-63.477,-54.199,0.000
1745672546.159,-12.695,-19.043,-29.297,-30.762,0.000
1745672546.163,-10.742,-19.531,-22.461,-34.180,0.000
1745672546.167,-54.199,-40.527,-34.668,-51.270,0.000
1745672546.171,-64.453,-43.945,-30.273,-51.758,0.000
1745672546.175,-28.809,-34.180,-33.691,-38.574,0.000
1745672546.179,-19.531,-34.668,-43.457,-32.227,0.000
1745672546.183,-43.945,-19.531,-38.574,-41.504,0.000
1745672546.187,-60.059,-19.043,-41.504,-56.641,0.000
1745672546.190,-38.574,-36.133,-25.391,-55.176,0.000
1745672546.194,-14.160,-35.156,-23.926,-41.992,0.000
1745672546.198,-43.945,-33.691,-46.387,-52.734,0.000
1745672546.202,-72.266,-44.434,-46.387,-59.570,0.000
1745672546.206,-53.223,-37.109,-43.457,-43.457,0.000
1745672546.210,-25.879,-30.273,-51.758,-27.344,0.000
1745672546.214,-34.668,-30.273,-58.105,-24.902,0.000
1745672546.218,-68.359,-37.598,-39.551,-45.898,0.000
1745672546.222,-67.871,-49.316,-32.715,-54.688,0.000
1745672546.226,-23.438,-40.039,-31.250,-34.180,0.000
1745672546.230,-11.719,-17.578,-23.926,-28.320,0.000
1745672546.233,-41.016,-26.367,-38.086,-38.086,0.000
1745672546.237,-50.293,-43.945,-55.176,-40.527,0.000
1745672546.241,-17.578,-28.320,-36.621,-22.949,0.000
1745672546.245,-0.488,-20.020,-17.090,-8.301,0.000
1745672546.249,-27.832,-29.785,-28.320,-19.043,0.000
1745672546.253,-45.410,-41.016,-35.156,-28.320,0.000
1745672546.257,-23.926,-32.227,-36.133,-15.625,0.000
1745672546.261,4.883,-16.113,-32.227,0.488,0.000
1745672546.265,-17.578,-22.461,-30.762,-1.953,0.000
1745672546.269,-58.594,-33.203,-31.738,-18.066,0.000
1745672546.272,-40.039,-38.574,-39.062,-24.902,0.000
1745672546.276,-2.441,-19.043,-25.391,-12.207,0.000
1745672546.280,-3.906,-16.113,-19.043,-10.254,0.000
1745672546.284,-41.016,-41.016,-43.457,-26.367,0.000
1745672546.288,-44.922,-42.480,-42.969,-22.949,0.000
1745672546.292,-9.766,-29.785,-31.250,-16.602,0.000
1745672546.296,-9.277,-29.785,-17.578,-20.020,0.000
1745672546.300,-51.270,-42.480,-34.180,-36.133,0.000
1745672546.304,-62.500,-43.457,-54.199,-48.340,0.000
1745672546.308,-29.785,-32.227,-49.316,-36.133,0.000
1745672546.312,-12.695,-27.344,-32.227,-30.762,0.000
1745672546.315,-43.457,-43.945,-23.926,-52.734,0.000
1745672546.319,-73.242,-47.363,-57.129,-71.289,0.000
1745672546.323,-52.246,-37.109,-71.777,-56.152,0.000
1745672546.327,-13.672,-20.996,-20.996,-36.133,0.000
1745672546.331,-21.973,-18.066,-0.977,-44.434,0.000
1745672546.335,-67.383,-41.016,-37.109,-61.035,0.000
1745672546.339,-68.359,-47.852,-54.199,-60.547,0.000
1745672546.343,-27.344,-33.203,-37.109,-47.363,0.000
1745672546.347,-25.391,-31.250,-37.109,-43.945,0.000
1745672546.351,-66.895,-44.922,-50.781,-52.734,0.000
1745672546.354,-69.336,-46.875,-46.387,-52.734,0.000
1745672546.358,-32.715,-32.715,-38.574,-25.391,0.000
1745672546.362,-14.648,-17.578,-34.668,-11.230,0.000
1745672546.366,-46.387,-27.832,-25.391,-36.621,0.000
1745672546.370,-70.801,-39.062,-41.992,-41.504,0.000
1745672546.374,-41.992,-28.809,-41.016,-26.855,0.000
1745672546.378,-19.043,-30.762,-15.137,-30.762,0.000
1745672546.382,-39.062,-36.133,-48.340,-43.457,0.000
1745672546.386,-73.730,-40.039,-52.734,-54.688,0.000
1745672546.390,-61.523,-38.574,-36.133,-58.594,0.000
1745672546.394,-18.555,-22.949,-31.250,-46.387,0.000
1745672546.397,-16.602,-26.367,-23.438,-43.457,0.000
1745672546.401,-59.082,-45.410,-36.621,-59.570,0.000
1745672546.405,-57.129,-36.621,-34.180,-52.734,0.000
1745672546.409,-17.578,-18.555,-21.484,-32.715,0.000
1745672546.413,-11.719,-20.508,-16.602,-26.367,0.000
1745672546.417,-48.828,-34.668,-30.762,-41.504,0.000
1745672546.421,-58.594,-34.180,-45.898,-35.645,0.000
1745672546.425,-20.020,-28.320,-36.133,-19.531,0.000
1745672546.429,-8.789,-29.297,-33.691,-18.555,0.000
1745672546.433,-41.504,-34.180,-48.340,-25.391,0.000
1745672546.437,-63.477,-42.480,-32.715,-38.574,0.000
1745672546.440,-28.320,-30.273,-20.020,-18.066,0.000
1745672546.444,2.441,-16.113,-21.484,7.812,0.000
1745672546.448,-20.020,-28.809,-22.461,-15.137,0.000
1745672546.452,-59.082,-41.016,-37.109,-42.480,0.000
1745672546.456,-50.293,-31.250,-38.086,-39.062,0.000
1745672546.460,-13.184,-13.672,-27.832,-26.367,0.000
1745672546.464,-21.484,-12.695,-30.762,-26.367,0.000
1745672546.468,-57.617,-30.273,-50.293,-51.270,0.000
1745672546.472,-54.199,-39.062,-51.758,-50.293,0.000
1745672546.476,-19.043,-26.367,-55.664,-23.926,0.000
1745672546.479,-18.555,-26.367,-77.148,-29.297,0.000
1745672546.483,-53.711,-40.039,-53.711,-51.270,0.000
1745672546.487,-65.430,-32.715,-32.227,-66.406,0.000
1745672546.491,-33.691,-24.414,-36.621,-67.871,0.000
1745672546.495,-12.695,-18.555,-25.879,-58.105,0.000
1745672546.499,-43.945,-20.508,-31.250,-53.711,0.000
1745672546.503,-69.824,-24.414,-61.035,-65.918,0.000
1745672546.507,-33.691,-23.926,-50.781,-58.105,0.000
1745672546.511,-4.883,-30.762,-25.391,-39.551,0.000
1745672546.515,-27.832,-23.926,-36.133,-42.480,0.000
1745672546.519,-60.547,-23.438,-57.129,-48.828,0.000
1745672546.522,-53.223,-42.969,-45.898,-46.387,0.000
1745672546.526,-16.113,-36.621,-21.484,-29.297,0.000
1745672546.530,-9.277,-20.020,-16.113,-23.438,0.000
1745672546.534,-43.457,-30.762,-45.898,-41.504,0.000
1745672546.538,-46.875,-38.574,-57.617,-43.945,0.000
1745672546.542,-4.883,-24.414,-21.973,-18.555,0.000
1745672546.546,-1.953,-11.719,-21.484,-13.672,0.000
1745672546.550,-47.363,-29.297,-37.598,-26.855,0.000
1745672546.554,-58.105,-44.434,-26.367,-37.109,0.000
1745672546.558,-21.484,-23.926,-16.113,-30.762,0.000
1745672546.562,9.766,-7.324,-20.020,-2.441,0.000
1745672546.565,-15.137,-20.508,-44.922,-4.883,0.000
1745672546.569,-53.711,-38.574,-50.781,-32.715,0.000
1745672546.573,-35.156,-39.062,-38.574,-30.762,0.000
1745672546.577,-0.977,-27.344,-26.367,-14.648,0.000
1745672546.581,-19.531,-24.414,-21.484,-18.555,0.000
1745672546.585,-60.059,-34.668,-39.551,-29.297,0.000
1745672546.589,-43.457,-31.738,-38.574,-22.949,0.000
1745672546.593,-3.418,-25.879,-21.973,-11.230,0.000
1745672546.597,-5.859,-27.832,-41.016,-21.484,0.000
1745672546.601,-41.504,-30.762,-60.059,-40.527,0.000
1745672546.604,-48.340,-20.020,-42.969,-42.969,0.000
1745672546.608,-12.207,-20.996,-29.297,-27.832,0.000
1745672546.612,-3.418,-35.645,-28.320,-21.973,0.000
1745672546.616,-40.527,-41.016,-46.875,-31.250,0.000
1745672546.620,-65.918,-46.875,-46.875,-47.363,0.000
1745672546.624,-39.551,-37.598,-42.969,-52.246,0.000
1745672546.628,-3.906,-23.438,-39.551,-35.156,0.000
1745672546.632,-15.625,-26.367,-17.090,-33.203,0.000
1745672546.636,-54.688,-40.039,-26.367,-46.387,0.000
1745672546.640,-35.156,-41.016,-34.668,-41.016,0.000
1745672546.644,-1.465,-23.438,-26.855,-28.320,0.000
1745672546.647,-20.020,-17.090,-23.438,-35.156,0.000
1745672546.651,-56.152,-27.344,-55.176,-48.340,0.000
1745672546.655,-61.035,-44.922,-59.082,-54.688,0.000
1745672546.659,-26.855,-50.781,-31.738,-42.969,0.000
1745672546.663,-13.672,-27.344,-30.273,-26.855,0.000
1745672546.667,-55.664,-53.223,-40.039,-36.133,0.000
1745672546.671,-77.148,-70.312,-53.711,-50.293,0.000
1745672546.675,-39.062,-37.598,-36.621,-42.969,0.000
1745672546.679,-7.812,-27.344,-21.484,-32.227,0.000
1745672546.683,-37.109,-40.039,-26.367,-43.457,0.000
1745672546.687,-64.941,-46.875,-39.551,-49.316,0.000
1745672546.690,-34.180,-42.969,-35.156,-39.551,0.000
1745672546.694,-4.883,-29.297,-13.672,-14.648,0.000
1745672546.698,-35.645,-21.484,-22.461,-18.555,0.000
1745672546.702,-81.055,-42.480,-48.828,-42.480,0.000
1745672546.706,-59.570,-46.875,-55.176,-26.855,0.000
1745672546.710,-13.672,-36.621,-40.039,-1.953,0.000
1745672546.714,-29.297,-40.527,-31.738,-19.043,0.000
1745672546.718,-70.801,-52.734,-51.758,-41.992,0.000
1745672546.722,-70.801,-47.852,-53.711,-38.086,0.000
1745672546.726,-28.320,-24.414,-21.484,-26.855,0.000
1745672546.729,-10.254,-24.902,-10.742,-30.273,0.000
1745672546.733,-40.039,-41.504,-29.297,-42.969,0.000
1745672546.737,-50.293,-41.504,-48.828,-49.805,0.000
1745672546.741,-13.184,-24.902,-29.297,-22.949,0.000
1745672546.745,5.371,-12.695,-9.766,-7.324,0.000
1745672546.749,-20.020,-39.551,-34.668,-36.133,0.000
1745672546.753,-46.387,-50.293,-49.316,-50.781,0.000
1745672546.757,-32.227,-29.785,-41.992,-41.992,0.000
1745672546.761,-2.930,-19.531,-25.391,-25.391,0.000
1745672546.765,-24.902,-31.250,-28.809,-40.527,0.000
1745672546.769,-66.406,-48.828,-47.363,-52.246,0.000
1745672546.772,-43.945,-37.109,-27.344,-41.504,0.000
1745672546.776,-0.977,-19.043,-0.977,-26.367,0.000
1745672546.780,-11.230,-15.137,-21.973,-23.438,0.000
1745672546.784,-51.758,-34.668,-42.480,-39.551,0.000
1745672546.788,-53.711,-49.316,-33.691,-54.199,0.000
1745672546.792,-14.648,-28.320,-28.320,-41.992,0.000
1745672546.796,-7.812,-26.855,-30.762,-31.738,0.000
1745672546.800,-46.387,-50.293,-40.527,-47.363,0.000
1745672546.804,-70.312,-52.246,-50.781,-55.176,0.000
1745672546.808,-39.551,-41.504,-41.016,-38.574,0.000
1745672546.812,-14.648,-29.297,-31.250,-23.438,0.000
1745672546.815,-44.922,-32.715,-41.016,-30.762,0.000
1745672546.819,-80.078,-54.688,-54.688,-52.246,0.000
1745672546.823,-60.547,-50.293,-44.922,-41.992,0.000
1745672546.827,-17.578,-29.297,-28.320,-19.531,0.000
1745672546.831,-28.809,-36.133,-39.062,-38.574,0.000
1745672546.835,-62.500,-44.434,-61.035,-59.082,0.000
1745672546.839,-48.340,-35.645,-48.828,-47.363,0.000
1745672546.843,-9.766,-21.484,-25.879,-29.785,0.000
1745672546.847,-10.742,-20.020,-23.926,-27.344,0.000
1745672546.851,-54.688,-44.922,-43.457,-47.363,0.000
1745672546.854,-69.824,-45.898,-53.223,-41.992,0.000
1745672546.858,-34.668,-20.996,-36.133,-20.508,0.000
1745672546.862,-17.578,-20.020,-25.391,-18.555,0.000
1745672546.866,-38.086,-36.133,-36.133,-21.484,0.000
1745672546.870,-58.105,-42.480,-42.480,-38.574,0.000
1745672546.874,-33.203,-33.203,-26.855,-35.156,0.000
1745672546.878,-10.742,-30.273,-23.438,-18.066,0.000
1745672546.882,-36.621,-31.250,-37.598,-26.367,0.000
1745672546.886,-65.918,-30.762,-52.246,-43.457,0.000
1745672546.890,-43.457,-30.762,-53.711,-39.551,0.000
1745672546.894,-12.207,-36.621,-37.109,-33.691,0.000
1745672546.897,-16.602,-30.273,-35.645,-31.738,0.000
1745672546.901,-44.434,-33.691,-60.059,-42.969,0.000
1745672546.905,-45.410,-42.969,-62.012,-51.758,0.000
1745672546.909,-11.719,-33.203,-27.344,-31.738,0.000
1745672546.913,-3.906,-27.832,-13.184,-16.602,0.000
1745672546.917,-39.062,-34.180,-40.527,-32.227,0.000
1745672546.921,-51.758,-47.852,-45.410,-36.133,0.000
1745672546.925,-8.301,-41.016,-18.066,-7.324,0.000
1745672546.929,12.207,-12.207,-12.207,-1.953,0.000
1745672546.933,-23.926,-16.602,-24.414,-29.297,0.000
1745672546.937,-53.223,-39.062,-49.316,-33.691,0.000
1745672546.940,-25.879,-28.320,-43.457,-18.555,0.000
1745672546.944,4.395,-8.789,-28.809,-7.812,0.000
1745672546.948,-18.066,-22.949,-41.992,-24.902,0.000
1745672546.952,-48.340,-41.992,-51.270,-43.945,0.000
1745672546.956,-38.574,-41.504,-51.758,-46.875,0.000
1745672546.960,-16.602,-37.109,-41.016,-35.645,0.000
1745672546.964,-15.137,-30.762,-47.363,-20.996,0.000
1745672546.968,-47.852,-30.762,-41.992,-32.227,0.000
1745672546.972,-53.223,-48.828,-31.250,-38.574,0.000
1745672546.976,-7.812,-35.645,-16.602,-26.367,0.000
1745672546.979,4.395,0.000,-6.836,-25.879,0.000
1745672546.983,-24.414,-16.113,-39.551,-38.574,0.000
1745672546.987,-42.969,-40.039,-56.152,-44.434,0.000
1745672546.991,-20.508,-29.785,-34.668,-33.691,0.000
1745672546.995,0.488,-26.855,-35.645,-24.414,0.000
1745672546.999,-28.320,-19.043,-48.828,-28.320,0.000
1745672547.003,-63.477,-32.715,-56.152,-52.246,0.000
1745672547.007,-44.922,-40.527,-41.504,-47.363,0.000
1745672547.011,-6.348,-20.996,-29.297,-17.578,0.000
1745672547.015,-15.625,-21.973,-25.879,-21.484,0.000
1745672547.019,-49.805,-30.273,-27.344,-39.062,0.000
1745672547.022,-41.016,-33.203,-35.645,-21.973,0.000
1745672547.026,-3.418,-23.926,-16.602,-6.836,0.000
1745672547.030,-11.230,-26.367,-21.484,-26.367,0.000
1745672547.034,-54.199,-53.711,-46.875,-48.340,0.000
1745672547.038,-51.270,-51.270,-45.410,-46.387,0.000
1745672547.042,-6.348,-27.344,-27.344,-24.414,0.000
1745672547.046,9.766,-21.484,-29.297,-14.160,0.000
1745672547.050,-26.367,-40.039,-52.734,-34.668,0.000
1745672547.054,-47.363,-43.457,-51.270,-47.852,0.000
1745672547.058,-13.184,-32.227,-37.598,-29.297,0.000
1745672547.062,8.301,-30.762,-32.715,-20.508,0.000
1745672547.065,-22.461,-34.668,-25.391,-29.785,0.000
1745672547.069,-52.246,-46.875,-32.715,-42.480,0.000
1745672547.073,-23.438,-33.203,-35.156,-21.484,0.000
1745672547.077,10.254,-7.324,-19.043,-6.348,0.000
1745672547.081,-11.230,-24.902,-12.207,-20.996,0.000
1745672547.085,-47.363,-35.645,-24.902,-21.973,0.000
1745672547.089,-43.457,-54.199,-31.250,-25.879,0.000
1745672547.093,-8.789,-43.457,-23.438,-19.531,0.000
1745672547.097,-6.348,-11.230,-20.508,-6.836,0.000
1745672547.101,-40.527,-19.531,-36.133,-17.578,0.000
1745672547.104,-53.711,-31.738,-39.551,-31.738,0.000
1745672547.108,-16.113,-23.926,-20.508,-15.625,0.000
1745672547.112,1.465,-14.648,-9.277,-4.395,0.000
1745672547.116,-34.668,-33.691,-34.180,-19.531,0.000
1745672547.120,-61.035,-32.227,-54.688,-24.414,0.000
1745672547.124,-36.133,-20.020,-36.621,-20.996,0.000
1745672547.128,-11.230,-25.879,-28.809,-24.902,0.000
1745672547.132,-33.691,-41.992,-46.387,-29.785,0.000
1745672547.136,-65.430,-52.734,-54.199,-42.969,0.000
1745672547.140,-52.246,-35.156,-23.926,-46.387,0.000
1745672547.144,-21.973,-24.902,-21.973,-33.691,0.000
1745672547.147,-32.227,-28.320,-37.109,-33.203,0.000
1745672547.151,-69.336,-39.551,-36.133,-50.781,0.000
1745672547.155,-72.266,-55.176,-36.621,-51.270,0.000
1745672547.159,-33.203,-47.363,-25.391,-26.367,0.000
1745672547.163,-28.320,-28.320,-19.531,-31.250,0.000
1745672547.167,-67.383,-29.297,-37.598,-49.805,0.000
1745672547.171,-71.289,-33.691,-57.617,-51.758,0.000
1745672547.175,-43.457,-39.551,-37.598,-45.410,0.000
1745672547.179,-29.297,-30.273,-20.508,-34.180,0.000
1745672547.183,-56.641,-38.086,-33.691,-36.133,0.000
1745672547.186,-80.566,-52.734,-44.434,-40.039,0.000
1745672547.190,-52.246,-41.016,-51.270,-39.551,0.000
1745672547.194,-25.391,-30.762,-44.434,-40.527,0.000
1745672547.198,-40.039,-29.297,-29.297,-34.668,0.000
1745672547.202,-69.824,-45.898,-38.574,-35.156,0.000
1745672547.206,-54.688,-51.758,-36.133,-39.551,0.000
1745672547.210,-14.160,-26.367,-16.602,-25.879,0.000
1745672547.214,-15.137,-19.043,-25.879,-20.020,0.000
1745672547.218,-51.270,-39.551,-46.387,-40.527,0.000
1745672547.222,-49.805,-42.480,-43.945,-41.504,0.000
1745672547.226,-7.324,-23.438,-30.273,-21.973,0.000
1745672547.229,-3.418,-28.809,-18.555,-18.555,0.000
1745672547.233,-41.504,-48.340,-29.785,-33.691,0.000
1745672547.237,-60.059,-50.293,-40.039,-43.945,0.000
1745672547.241,-25.391,-31.738,-34.180,-27.344,0.000
1745672547.245,2.441,-17.090,-22.949,-13.184,0.000
1745672547.249,-28.809,-28.320,-27.344,-32.715,0.000
1745672547.253,-61.035,-37.598,-41.992,-36.133,0.000
1745672547.257,-35.645,-24.902,-38.574,-20.508,0.000
1745672547.261,0.977,-5.859,-34.180,-13.672,0.000
1745672547.265,-16.602,-14.648,-20.508,-19.043,0.000
1745672547.269,-55.664,-34.668,-24.414,-39.062,0.000
1745672547.272,-49.805,-28.320,-41.016,-41.016,0.000
1745672547.276,-7.812,-17.578,-33.203,-25.391,0.000
1745672547.280,-6.836,-24.902,-29.785,-30.762,0.000
1745672547.284,-51.270,-40.527,-39.062,-47.363,0.000
1745672547.288,-67.383,-50.293,-39.551,-50.293,0.000
1745672547.292,-32.227,-35.156,-33.203,-40.039,0.000
1745672547.296,-20.020,-28.320,-23.926,-37.109,0.000
1745672547.300,-50.781,-39.062,-30.273,-46.387,0.000
1745672547.304,-70.312,-45.410,-41.504,-50.293,0.000
1745672547.308,-34.180,-24.414,-29.785,-26.367,0.000
1745672547.311,-4.883,-6.348,-19.531,-13.184,0.000
1745672547.315,-38.086,-25.879,-30.762,-29.785,0.000
1745672547.319,-64.941,-35.645,-51.270,-42.480,0.000
1745672547.323,-41.016,-33.203,-48.828,-42.969,0.000
1745672547.327,-4.395,-19.531,-21.973,-28.809,0.000
1745672547.331,-20.508,-22.461,-43.457,-32.715,0.000
1745672547.335,-62.012,-39.062,-67.871,-52.734,0.000
1745672547.339,-59.082,-35.645,-51.758,-51.270,0.000
1745672547.343,-22.949,-22.461,-31.738,-40.527,0.000
1745672547.347,-14.648,-20.996,-26.855,-40.039,0.000
1745672547.351,-52.734,-38.086,-45.410,-52.246,0.000
1745672547.354,-62.012,-31.738,-48.340,-47.852,0.000
1745672547.358,-28.320,-14.160,-32.715,-28.809,0.000
1745672547.362,-21.484,-26.367,-28.809,-27.344,0.000
1745672547.366,-56.641,-40.527,-44.434,-45.410,0.000
1745672547.370,-66.895,-38.086,-46.387,-41.992,0.000
1745672547.374,-29.297,-24.902,-29.785,-22.461,0.000
1745672547.378,-3.906,-19.043,-25.879,-19.043,0.000
1745672547.382,-25.879,-29.297,-29.785,-35.156,0.000
1745672547.386,-54.688,-37.109,-46.387,-48.828,0.000
1745672547.390,-36.133,-32.715,-54.688,-33.691,0.000
1745672547.394,-3.906,-26.367,-32.715,-15.137,0.000
1745672547.397,-7.812,-28.809,-30.273,-8.789,0.000
1745672547.401,-36.621,-31.250,-40.527,-33.691,0.000
1745672547.405,-41.504,-33.203,-31.250,-36.133,0.000
1745672547.409,-8.789,-29.785,-32.227,-7.812,0.000
1745672547.413,-2.930,-15.625,-25.391,-10.742,0.000
1745672547.417,-49.805,-26.855,-25.879,-31.250,0.000
1745672547.421,-65.430,-40.527,-35.645,-49.316,0.000
1745672547.425,-31.738,-34.180,-30.762,-51.758,0.000
1745672547.429,-18.066,-22.461,-25.879,-41.504,0.000
1745672547.433,-52.734,-31.738,-36.621,-59.082,0.000
1745672547.436,-78.125,-41.992,-49.316,-77.637,0.000
1745672547.440,-55.176,-31.738,-34.180,-63.965,0.000
1745672547.444,-30.273,-24.902,-23.926,-54.199,0.000
1745672547.448,-54.688,-25.391,-25.879,-62.988,0.000
1745672547.452,-92.773,-35.156,-35.645,-75.195,0.000
1745672547.456,-83.496,-39.551,-39.551,-72.754,0.000
1745672547.460,-50.293,-29.785,-32.715,-57.617,0.000
1745672547.464,-49.805,-28.320,-35.156,-45.410,0.000
1745672547.468,-91.309,-48.828,-40.527,-56.641,0.000
1745672547.472,-86.914,-43.457,-35.156,-55.664,0.000
1745672547.476,-53.223,-36.133,-25.879,-49.316,0.000
1745672547.479,-51.758,-35.645,-27.344,-50.781,0.000
1745672547.483,-82.520,-32.227,-38.086,-60.059,0.000
1745672547.487,-96.680,-47.852,-47.363,-78.125,0.000
1745672547.491,-64.453,-39.551,-31.738,-63.965,0.000
1745672547.495,-37.109,-20.020,-21.973,-35.645,0.000
1745672547.499,-58.105,-42.480,-43.945,-39.062,0.000
1745672547.503,-81.055,-56.152,-57.617,-52.734,0.000
1745672547.507,-55.664,-30.762,-46.387,-45.898,0.000
1745672547.511,-20.508,-20.020,-27.832,-31.738,0.000
1745672547.515,-25.879,-19.531,-37.109,-32.715,0.000
1745672547.519,-55.176,-29.785,-55.664,-39.062,0.000
1745672547.522,-48.828,-29.297,-62.012,-38.086,0.000
1745672547.526,-15.625,-32.715,-57.617,-29.297,0.000
1745672547.530,-7.324,-26.367,-39.551,-31.738,0.000
1745672547.534,-37.598,-35.156,-39.551,-47.852,0.000
1745672547.538,-33.691,-40.039,-62.500,-44.434,0.000
1745672547.542,9.277,-8.301,-40.527,-34.180,0.000
1745672547.546,15.625,-10.254,-13.184,-30.273,0.000
1745672547.550,-20.508,-29.785,-33.691,-36.133,0.000
1745672547.554,-42.480,-51.270,-46.387,-39.062,0.000
1745672547.558,-10.254,-44.434,-37.598,-19.531,0.000
1745672547.561,9.766,-22.949,-39.551,-17.090,0.000
1745672547.565,-24.902,-37.109,-42.969,-28.809,0.000
1745672547.569,-56.152,-48.340,-42.969,-32.227,0.000
1745672547.573,-36.621,-55.176,-50.293,-34.668,0.000
1745672547.577,3.906,-32.227,-28.809,-16.602,0.000
1745672547.581,-7.812,-14.160,-30.273,-13.672,0.000
1745672547.585,-53.223,-36.621,-61.035,-43.945,0.000
1745672547.589,-48.340,-35.645,-49.805,-44.922,0.000
1745672547.593,-5.371,-27.344,-31.250,-12.695,0.000
1745672547.597,0.000,-27.832,-23.438,-7.324,0.000
1745672547.601,-40.039,-39.551,-28.320,-23.438,0.000
1745672547.604,-55.176,-56.641,-42.480,-38.574,0.000
1745672547.608,-19.043,-42.480,-43.457,-28.809,0.000
1745672547.612,-2.930,-21.484,-31.738,-20.020,0.000
1745672547.616,-39.551,-34.180,-38.086,-38.574,0.000
1745672547.620,-60.547,-55.664,-41.504,-47.363,0.000
1745672547.624,-26.367,-48.340,-20.996,-36.133,0.000
1745672547.628,0.000,-26.855,-13.672,-27.344,0.000
1745672547.632,-23.926,-28.320,-35.156,-34.668,0.000
1745672547.636,-57.129,-30.273,-58.105,-46.387,0.000
1745672547.640,-45.898,-36.621,-42.480,-40.527,0.000
1745672547.644,-7.812,-34.180,-20.508,-25.391,0.000
1745672547.647,-17.578,-41.504,-30.762,-36.621,0.000
1745672547.651,-57.617,-47.363,-51.270,-55.176,0.000
1745672547.655,-59.570,-42.969,-59.570,-59.082,0.000
1745672547.659,-22.461,-23.926,-33.203,-37.598,0.000
1745672547.663,-12.207,-11.230,-24.414,-24.414,0.000
1745672547.667,-65.918,-33.203,-57.617,-59.082,0.000
1745672547.671,-94.727,-37.598,-54.688,-77.637,0.000
1745672547.675,-61.035,-30.762,-30.273,-58.594,0.000
1745672547.679,-44.434,-22.949,-21.973,-53.711,0.000
1745672547.683,-89.844,-16.602,-40.039,-74.707,0.000
1745672547.686,-127.930,-28.320,-52.734,-97.168,0.000
1745672547.690,-98.145,-32.227,-38.086,-79.590,0.000
1745672547.694,-74.219,-26.855,-26.855,-68.359,0.000
1745672547.698,-111.816,-33.691,-36.133,-98.145,0.000
1745672547.702,-143.555,-40.039,-42.480,-120.605,0.000
1745672547.706,-125.000,-30.273,-36.621,-120.117,0.000
1745672547.710,-96.680,-12.695,-42.969,-113.770,0.000
1745672547.714,-107.910,-14.160,-30.762,-116.699,0.000
1745672547.718,-150.391,-31.250,-22.461,-133.789,0.000
1745672547.722,-150.391,-24.414,-29.297,-138.672,0.000
1745672547.726,-110.840,-9.277,-19.531,-132.324,0.000
1745672547.729,-92.285,-11.719,-22.949,-123.535,0.000
1745672547.733,-117.676,-27.832,-21.484,-128.906,0.000
1745672547.737,-135.254,-29.297,-22.461,-132.812,0.000
1745672547.741,-95.215,-8.789,-20.996,-100.098,0.000
1745672547.745,-66.895,4.395,-22.461,-80.078,0.000
1745672547.749,-83.496,-15.625,-21.973,-87.402,0.000
1745672547.753,-101.074,-48.340,-59.082,-93.750,0.000
1745672547.757,-78.613,-24.902,-69.336,-78.613,0.000
1745672547.761,-30.762,3.418,-17.090,-51.270,0.000
1745672547.765,-34.668,-12.207,-5.371,-52.734,0.000
1745672547.769,-72.266,-34.668,-36.133,-68.848,0.000
1745672547.772,-62.500,-39.551,-53.711,-66.895,0.000
1745672547.776,-10.254,-17.090,-35.156,-30.273,0.000
1745672547.780,-1.953,-10.254,-39.551,-11.719,0.000
1745672547.784,-36.133,-42.480,-54.199,-24.414,0.000
1745672547.788,-34.668,-49.805,-50.293,-16.113,0.000
1745672547.792,6.348,-25.879,-33.203,-1.465,0.000
1745672547.796,28.809,-12.695,-22.949,12.207,0.000
1745672547.800,0.977,-26.367,-61.523,6.836,0.000
1745672547.804,-21.973,-38.086,-70.312,-9.277,0.000
1745672547.808,4.883,-35.156,-47.363,-8.789,0.000
1745672547.811,35.156,-27.832,-31.738,6.836,0.000
1745672547.815,10.742,-29.297,-36.621,1.465,0.000
1745672547.819,-25.391,-42.969,-55.664,-19.043,0.000
1745672547.823,-5.859,-30.762,-36.133,2.930,0.000
1745672547.827,23.926,-24.902,-21.973,24.902,0.000
1745672547.831,9.766,-38.574,-31.738,8.301,0.000
1745672547.835,-25.391,-52.246,-45.898,-15.625,0.000
1745672547.839,-33.691,-45.410,-49.316,-19.531,0.000
1745672547.843,10.254,-9.277,-39.062,8.301,0.000
1745672547.847,6.348,-15.625,-46.875,10.254,0.000
1745672547.851,-61.523,-55.176,-51.270,-37.109,0.000
1745672547.854,-75.195,-49.805,-28.320,-54.199,0.000
1745672547.858,-39.551,-32.715,-8.789,-44.434,0.000
1745672547.862,-17.578,-23.926,-16.602,-39.062,0.000
1745672547.866,-45.410,-28.320,-19.531,-49.805,0.000
1745672547.870,-94.238,-40.527,-23.926,-80.078,0.000
1745672547.874,-83.496,-35.645,-19.531,-78.613,0.000
1745672547.878,-58.105,-31.250,-8.301,-72.754,0.000
1745672547.882,-87.891,-37.598,-9.766,-97.168,0.000
1745672547.886,-127.930,-51.758,-25.879,-115.234,0.000
1745672547.890,-117.676,-36.621,-15.625,-104.980,0.000
1745672547.894,-97.168,-21.973,4.883,-90.820,0.000
1745672547.897,-111.328,-28.320,-0.488,-103.516,0.000
1745672547.901,-140.137,-37.598,-4.883,-126.465,0.000
1745672547.905,-141.602,-38.574,-16.113,-126.465,0.000
1745672547.909,-102.051,-24.902,1.953,-113.770,0.000
1745672547.913,-92.773,-22.461,13.184,-114.258,0.000
1745672547.917,-131.348,-24.414,-19.043,-127.930,0.000
1745672547.921,-131.836,-20.020,-28.809,-120.605,0.000
1745672547.925,-89.355,-22.461,5.371,-95.215,0.000
1745672547.929,-75.684,-20.020,3.418,-92.773,0.000
1745672547.933,-107.910,-17.090,-18.066,-107.910,0.000
1745672547.936,-127.930,-30.762,-25.879,-111.328,0.000
1745672547.940,-97.656,-32.715,-29.785,-94.727,0.000
1745672547.944,-66.406,-18.066,-15.137,-82.031,0.000
1745672547.948,-83.496,-18.555,-32.715,-81.055,0.000
1745672547.952,-109.375,-36.133,-32.227,-98.633,0.000
1745672547.956,-87.891,-39.551,-16.602,-101.074,0.000
1745672547.960,-39.551,-29.785,-13.184,-66.895,0.000
1745672547.964,-39.551,-17.090,-24.902,-55.176,0.000
1745672547.968,-78.613,-19.043,-49.316,-77.637,0.000
1745672547.972,-67.871,-33.203,-44.434,-66.895,0.000
1745672547.976,-24.414,-26.367,-31.738,-30.762,0.000
1745672547.979,-15.137,-28.320,-37.109,-16.602,0.000
1745672547.983,-46.387,-42.969,-45.410,-36.133,0.000
1745672547.987,-58.594,-54.688,-56.641,-41.992,0.000
1745672547.991,-26.367,-63.965,-49.805,-14.648,0.000
1745672547.995,6.836,-37.598,-37.109,9.766,0.000
1745672547.999,-12.207,-20.020,-57.617,6.836,0.000
1745672548.003,-30.762,-33.691,-82.031,-0.977,0.000
1745672548.007,0.488,-29.297,-69.824,21.973,0.000
1745672548.011,30.762,-22.949,-28.809,31.250,0.000
1745672548.015,23.438,-25.391,-24.414,27.832,0.000
1745672548.018,-6.836,-46.875,-59.082,27.832,0.000
1745672548.022,10.254,-45.898,-60.059,34.668,0.000
1745672548.026,53.711,-30.273,-34.180,53.223,0.000
1745672548.030,58.594,-28.809,-34.668,59.570,0.000
1745672548.034,31.250,-29.297,-53.711,51.758,0.000
1745672548.038,30.762,-32.715,-58.594,57.129,0.000
1745672548.042,78.613,-23.438,-44.434,71.777,0.000
1745672548.046,95.703,-18.555,-35.156,80.078,0.000
1745672548.050,64.453,-39.062,-58.594,74.707,0.000
1745672548.054,48.340,-42.969,-65.430,75.195,0.000
1745672548.058,79.102,-14.160,-32.715,89.844,0.000
1745672548.061,100.098,-5.371,-17.578,88.867,0.000
1745672548.065,78.125,-22.949,-33.691,77.148,0.000
1745672548.069,45.410,-31.738,-48.340,68.848,0.000
1745672548.073,62.012,-23.926,-42.969,81.055,0.000
1745672548.077,93.262,-11.719,-27.344,97.168,0.000
1745672548.081,72.754,-18.066,-45.410,84.961,0.000
1745672548.085,33.203,-45.410,-57.617,63.477,0.000
1745672548.089,28.320,-46.387,-33.691,55.176,0.000
1745672548.093,67.871,-14.648,-18.066,61.523,0.000
1745672548.097,71.289,-18.066,-20.020,69.336,0.000
1745672548.101,25.391,-43.945,-37.109,49.316,0.000
1745672548.104,17.090,-40.039,-42.480,41.992,0.000
1745672548.108,55.664,-23.926,-42.969,57.129,0.000
1745672548.112,70.801,-18.066,-27.832,57.129,0.000
1745672548.116,33.203,-27.832,-20.996,35.156,0.000
1745672548.120,6.348,-37.109,-32.227,19.531,0.000
1745672548.124,34.668,-28.809,-23.438,28.809,0.000
1745672548.128,59.082,-26.855,-30.762,38.086,0.000
1745672548.132,32.227,-31.250,-41.992,26.367,0.000
1745672548.136,-1.953,-33.203,-37.109,7.812,0.000
1745672548.140,14.160,-27.832,-35.645,19.043,0.000
1745672548.143,47.363,-26.367,-20.508,33.691,0.000
1745672548.147,37.109,-35.645,-27.832,21.973,0.000
1745672548.151,-4.883,-35.156,-40.527,3.906,0.000
1745672548.155,-11.719,-34.180,-34.668,9.766,0.000
1745672548.159,29.297,-26.855,-29.785,27.832,0.000
1745672548.163,40.527,-24.414,-20.996,28.809,0.000
1745672548.167,-6.348,-44.922,-36.133,4.395,0.000
1745672548.171,-25.879,-56.152,-54.688,0.000,0.000
1745672548.175,9.277,-41.992,-40.039,23.926,0.000
1745672548.179,28.809,-32.227,-11.719,26.855,0.000
1745672548.183,-2.930,-37.598,-14.648,0.488,0.000
1745672548.186,-27.344,-42.969,-33.691,-17.090,0.000
1745672548.190,-1.465,-41.992,-28.809,-5.371,0.000
1745672548.194,28.809,-33.203,-21.973,3.906,0.000
1745672548.198,12.207,-24.414,-27.832,-0.488,0.000
1745672548.202,-23.438,-35.156,-48.340,-11.719,0.000
1745672548.206,-13.184,-37.109,-42.969,-11.719,0.000
1745672548.210,20.508,-22.461,-20.020,3.418,0.000
1745672548.214,12.695,-21.484,-15.625,2.441,0.000
1745672548.218,-33.203,-41.504,-27.344,-22.949,0.000
1745672548.222,-36.621,-44.434,-34.668,-18.066,0.000
1745672548.226,-0.977,-25.879,-23.438,-3.418,0.000
1745672548.229,17.090,-17.090,-14.160,-8.789,0.000
1745672548.233,-18.555,-39.551,-34.180,-21.484,0.000
1745672548.237,-41.504,-53.711,-49.316,-29.297,0.000
1745672548.241,-0.977,-23.926,-36.621,-17.090,0.000
1745672548.245,28.809,-3.906,-21.484,-8.301,0.000
1745672548.249,-0.977,-24.902,-30.273,-14.160,0.000
1745672548.253,-32.227,-40.039,-50.781,-16.602,0.000
1745672548.257,-6.836,-24.414,-57.617,-17.090,0.000
1745672548.261,23.926,-18.066,-45.410,-11.719,0.000
1745672548.265,9.766,-18.555,-21.973,-8.789,0.000
1745672548.268,-31.250,-36.133,-41.992,-37.109,0.000
1745672548.272,-30.273,-35.156,-49.805,-43.457,0.000
1745672548.276,1.953,-27.832,-34.180,-15.137,0.000
1745672548.280,7.324,-30.762,-22.949,-13.184,0.000
1745672548.284,-20.996,-35.156,-29.297,-26.367,0.000
1745672548.288,-42.480,-41.016,-40.527,-33.203,0.000
1745672548.292,-18.555,-24.414,-24.414,-24.414,0.000
1745672548.296,-9.277,-20.508,-19.531,-19.531,0.000
1745672548.300,-47.852,-44.434,-44.922,-48.340,0.000
1745672548.304,-67.871,-56.641,-58.594,-67.871,0.000
1745672548.308,-30.273,-44.434,-42.969,-54.199,0.000
1745672548.311,3.418,-29.297,-24.414,-29.785,0.000
1745672548.315,-17.578,-26.855,-34.180,-28.320,0.000
1745672548.319,-42.969,-42.480,-58.594,-41.504,0.000
1745672548.323,-33.203,-47.363,-43.945,-37.598,0.000
1745672548.327,-1.953,-23.926,-19.531,-20.508,0.000
1745672548.331,-6.348,-17.090,-23.926,-24.414,0.000
1745672548.335,-41.504,-24.902,-40.527,-37.109,0.000
1745672548.339,-44.434,-25.391,-50.293,-44.434,0.000
1745672548.343,-10.254,-17.090,-35.156,-42.480,0.000
1745672548.347,-4.395,-13.672,-41.016,-31.250,0.000
1745672548.351,-46.387,-31.738,-53.223,-40.039,0.000
1745672548.354,-63.477,-47.852,-42.969,-50.293,0.000
1745672548.358,-27.832,-33.691,-38.086,-33.691,0.000
1745672548.362,-5.371,-17.578,-25.879,-20.020,0.000
1745672548.366,-40.527,-35.645,-34.668,-41.992,0.000
1745672548.370,-65.430,-47.363,-46.387,-56.152,0.000
1745672548.374,-22.461,-31.250,-36.621,-38.086,0.000
1745672548.378,6.348,-27.832,-28.809,-20.996,0.000
1745672548.382,-14.160,-25.391,-35.156,-28.809,0.000
1745672548.386,-31.738,-25.391,-37.598,-41.016,0.000
1745672548.390,-20.508,-32.715,-39.551,-35.645,0.000
1745672548.393,4.395,-23.926,-18.066,-26.855,0.000
1745672548.397,-7.324,-23.438,-11.230,-26.855,0.000
1745672548.401,-51.270,-38.574,-34.180,-44.922,0.000
1745672548.405,-45.898,-41.016,-28.809,-41.016,0.000
1745672548.409,-11.230,-29.785,-16.602,-25.879,0.000
1745672548.413,-5.859,-20.996,-24.902,-22.461,0.000
1745672548.417,-36.621,-33.691,-24.902,-24.414,0.000
1745672548.421,-55.176,-45.898,-20.996,-46.387,0.000
1745672548.425,-23.926,-34.180,-17.578,-45.410,0.000
1745672548.429,-0.488,-18.066,-10.742,-23.438,0.000
1745672548.433,-30.273,-20.508,-20.020,-21.973,0.000
1745672548.436,-67.383,-42.969,-35.645,-26.855,0.000
1745672548.440,-47.852,-50.293,-36.133,-20.020,0.000
1745672548.444,-17.578,-36.133,-24.902,-14.648,0.000
1745672548.448,-29.785,-35.156,-14.648,-17.578,0.000
1745672548.452,-63.965,-48.828,-28.320,-35.645,0.000
1745672548.456,-54.199,-46.387,-32.227,-46.875,0.000
1745672548.460,-19.043,-41.016,-19.531,-41.992,0.000
1745672548.464,-25.391,-41.992,-14.160,-32.715,0.000
1745672548.468,-58.105,-44.434,-22.949,-43.945,0.000
1745672548.472,-58.594,-42.480,-36.621,-43.457,0.000
1745672548.476,-18.066,-25.391,-28.809,-29.785,0.000
1745672548.479,-5.859,-19.043,-16.602,-25.879,0.000
1745672548.483,-39.062,-34.668,-29.297,-31.738,0.000
1745672548.487,-52.246,-51.758,-45.410,-40.527,0.000
1745672548.491,-12.207,-41.504,-33.203,-12.695,0.000
1745672548.495,24.902,-20.508,-26.367,13.184,0.000
1745672548.499,-7.324,-28.320,-35.645,-4.883,0.000
1745672548.503,-52.734,-51.758,-31.738,-34.180,0.000
1745672548.507,-21.973,-37.598,-13.184,-31.738,0.000
1745672548.511,23.438,-10.254,-2.441,-13.672,0.000
1745672548.515,11.719,-15.137,-16.602,-17.578,0.000
1745672548.518,-25.391,-35.156,-34.668,-29.785,0.000
1745672548.522,-21.973,-34.180,-34.180,-29.297,0.000
1745672548.526,14.648,-18.555,-12.207,-16.113,0.000
1745672548.530,6.348,-18.555,-12.207,-10.742,0.000
1745672548.534,-35.156,-46.387,-31.738,-26.367,0.000
1745672548.538,-41.992,-49.805,-37.109,-32.715,0.000
1745672548.542,-11.719,-22.949,-27.344,-6.836,0.000
1745672548.546,9.277,-18.066,-24.902,-8.789,0.000
1745672548.550,-20.020,-40.039,-24.414,-32.227,0.000
1745672548.554,-40.039,-44.922,-32.227,-31.250,0.000
1745672548.558,-0.488,-20.508,-40.039,-23.438,0.000
1745672548.561,12.695,-19.531,-30.273,-22.949,0.000
1745672548.565,-17.090,-22.461,-21.973,-19.531,0.000
1745672548.569,-43.945,-30.273,-32.227,-29.297,0.000
1745672548.573,-30.273,-25.879,-39.062,-38.574,0.000
1745672548.577,5.371,-19.043,-26.367,-33.203,0.000
1745672548.581,4.395,-22.461,-20.508,-24.414,0.000
1745672548.585,-25.391,-31.250,-29.785,-24.902,0.000
1745672548.589,-27.344,-45.898,-49.805,-21.484,0.000
1745672548.593,0.000,-32.227,-26.855,-7.324,0.000
1745672548.597,-0.977,-18.066,-3.418,-10.254,0.000
1745672548.601,-35.156,-31.250,-15.137,-29.785,0.000
1745672548.604,-46.875,-37.598,-32.715,-41.504,0.000
1745672548.608,-19.531,-32.715,-28.320,-32.227,0.000
1745672548.612,5.371,-28.809,-14.648,-17.578,0.000
1745672548.616,-9.766,-17.090,-25.879,-14.648,0.000
1745672548.620,-41.016,-21.973,-38.086,-26.367,0.000
1745672548.624,-32.227,-28.809,-43.457,-26.855,0.000
1745672548.628,-7.812,-22.949,-39.551,-25.391,0.000
1745672548.632,-14.648,-26.367,-27.344,-23.926,0.000
1745672548.636,-33.691,-28.809,-20.996,-24.414,0.000
1745672548.640,-47.852,-37.598,-56.641,-57.617,0.000
1745672548.643,-47.363,-41.504,-73.730,-69.824,0.000
1745672548.647,-32.715,-29.297,-39.551,-40.039,0.000
1745672548.651,-31.738,-18.555,-20.508,-16.602,0.000
1745672548.655,-51.758,-30.762,-28.320,-31.738,0.000
1745672548.659,-59.570,-48.340,-56.152,-67.871,0.000
1745672548.663,-42.969,-41.992,-45.410,-58.594,0.000
1745672548.667,-36.621,-15.137,-14.160,-20.020,0.000
1745672548.671,-44.922,-21.484,-22.949,-16.113,0.000
1745672548.675,-55.664,-42.969,-48.828,-56.152,0.000
1745672548.679,-55.176,-46.875,-54.688,-61.035,0.000
1745672548.683,-39.062,-47.363,-29.297,-19.531,0.000
1745672548.686,-39.551,-35.645,-9.277,-4.883,0.000
1745672548.690,-59.570,-38.086,-30.273,-32.715,0.000
1745672548.694,-58.594,-52.246,-49.316,-48.828,0.000
1745672548.698,-42.480,-45.898,-29.785,-19.531,0.000
1745672548.702,-34.180,-34.180,-7.812,1.465,0.000
1745672548.706,-46.875,-49.805,-30.273,-25.879,0.000
1745672548.710,-56.641,-58.594,-42.969,-47.363,0.000
1745672548.714,-44.434,-40.527,-12.207,-26.855,0.000
1745672548.718,-32.715,-26.367,11.719,2.441,0.000
1745672548.722,-37.598,-33.691,-4.883,-11.719,0.000
1745672548.726,-53.223,-50.781,-49.805,-49.316,0.000
1745672548.729,-41.992,-46.387,-58.105,-45.410,0.000
1745672548.733,-11.719,-17.578,-5.371,2.930,0.000
1745672548.737,-6.836,-12.207,9.766,16.113,0.000
1745672548.741,-30.762,-31.250,-35.645,-28.320,0.000
1745672548.745,-37.598,-35.156,-60.547,-54.688,0.000
1745672548.749,-5.859,-10.742,-22.949,-17.090,0.000
1745672548.753,6.348,-3.906,3.418,8.789,0.000
1745672548.757,-19.043,-17.578,-47.363,-25.879,0.000
1745672548.761,-29.785,-12.207,-81.055,-58.105,0.000
1745672548.765,-3.906,0.000,-29.785,-25.879,0.000
1745672548.768,6.836,-8.301,9.277,13.672,0.000
1745672548.772,-24.902,-31.738,-19.531,-20.508,0.000
1745672548.776,-45.898,-42.969,-59.082,-68.848,0.000
1745672548.780,-27.832,-35.645,-47.363,-49.805,0.000
1745672548.784,-2.930,-20.508,-2.441,-3.418,0.000
1745672548.788,-16.602,-24.414,-9.766,-14.160,0.000
1745672548.792,-50.293,-40.039,-59.570,-63.965,0.000
1745672548.796,-50.781,-41.992,-62.500,-71.289,0.000
1745672548.800,-18.555,-24.414,-19.043,-22.461,0.000
1745672548.804,-13.672,-16.113,-6.348,-6.836,0.000
1745672548.808,-50.781,-50.293,-49.805,-44.434,0.000
1745672548.811,-62.012,-55.664,-67.871,-66.406,0.000
1745672548.815,-28.809,-20.996,-25.879,-21.484,0.000
1745672548.819,-13.672,-21.484,-2.441,7.324,0.000
1745672548.823,-34.180,-38.086,-45.410,-40.039,0.000
1745672548.827,-52.734,-47.852,-77.148,-77.637,0.000
1745672548.831,-26.855,-37.598,-41.016,-45.410,0.000
1745672548.835,6.836,-17.578,8.301,0.488,0.000
1745672548.839,-16.602,-27.344,-13.184,-20.020,0.000
1745672548.843,-51.758,-49.316,-75.684,-70.312,0.000
1745672548.847,-41.016,-41.504,-59.570,-62.500,0.000
1745672548.850,-0.977,-20.020,2.441,-5.859,0.000
1745672548.854,-4.883,-18.066,1.953,-1.953,0.000
1745672548.858,-46.387,-38.574,-54.688,-58.594,0.000
1745672548.862,-41.504,-43.945,-68.359,-59.570,0.000
1745672548.866,4.395,-18.066,-13.672,13.184,0.000
1745672548.870,2.930,-12.207,29.785,22.949,0.000
1745672548.874,-43.945,-32.715,-28.320,-41.016,0.000
1745672548.878,-63.477,-45.898,-76.660,-71.289,0.000
1745672548.882,-20.996,-28.809,-18.555,-17.090,0.000
1745672548.886,15.625,-8.789,28.809,30.762,0.000
1745672548.890,-19.043,-26.855,-24.902,-7.324,0.000
1745672548.893,-57.129,-44.922,-81.543,-61.523,0.000
1745672548.897,-29.297,-27.832,-47.363,-38.086,0.000
1745672548.901,12.207,-5.859,-1.953,23.926,0.000
1745672548.905,-8.789,-17.090,-21.973,-1.953,0.000
1745672548.909,-51.758,-48.828,-70.312,-71.289,0.000
1745672548.913,-37.109,-45.898,-55.176,-63.965,0.000
1745672548.917,7.812,-9.766,-1.465,-2.930,0.000
1745672548.921,3.906,-7.812,-2.441,-1.953,0.000
1745672548.925,-43.457,-42.969,-55.664,-61.035,0.000
1745672548.929,-50.781,-43.457,-73.730,-71.777,0.000
1745672548.933,1.465,-12.695,-16.602,-5.371,0.000
1745672548.936,21.973,-10.742,5.859,22.949,0.000
1745672548.940,-34.668,-39.062,-49.316,-49.805,0.000
1745672548.944,-61.523,-51.270,-81.543,-86.426,0.000
1745672548.948,-19.531,-23.438,-33.203,-32.715,0.000
1745672548.952,16.113,-2.441,19.531,10.742,0.000
1745672548.956,-10.742,-26.855,-26.367,-29.297,0.000
1745672548.960,-59.082,-57.617,-88.867,-82.031,0.000
1745672548.964,-40.039,-44.434,-43.945,-41.992,0.000
1745672548.968,8.789,-7.812,18.555,28.320,0.000
1745672548.972,-14.160,-17.578,-14.648,2.441,0.000
1745672548.975,-69.336,-52.734,-72.266,-72.266,0.000
1745672548.979,-60.059,-44.922,-65.918,-64.941,0.000
1745672548.983,-10.254,-15.137,-4.395,-0.977,0.000
1745672548.987,-9.277,-23.926,5.859,-3.906,0.000
1745672548.991,-64.941,-45.898,-57.617,-64.941,0.000
1745672548.995,-68.848,-39.062,-79.102,-85.938,0.000
1745672548.999,-19.043,-19.043,-36.621,-40.039,0.000
1745672549.003,-1.465,-15.625,6.348,-3.418,0.000
1745672549.007,-40.527,-41.992,-43.457,-46.387,0.000
1745672549.011,-70.801,-60.547,-93.750,-83.984,0.000
1745672549.015,-35.156,-34.180,-36.621,-43.457,0.000
1745672549.018,2.441,-12.207,23.926,8.789,0.000
1745672549.022,-20.020,-21.973,-12.207,-21.973,0.000
1745672549.026,-54.688,-48.340,-83.008,-84.473,0.000
1745672549.030,-39.551,-48.828,-63.965,-60.059,0.000
1745672549.034,5.859,-16.602,13.184,7.812,0.000
1745672549.038,-5.859,-13.184,-9.766,4.395,0.000
1745672549.042,-57.617,-37.109,-83.008,-55.176,0.000
1745672549.046,-53.711,-41.016,-81.055,-57.129,0.000
1745672549.050,-3.418,-13.672,-16.113,-4.883,0.000
1745672549.054,1.953,-12.695,14.160,0.000,0.000
1745672549.058,-56.641,-44.922,-47.363,-64.453,0.000
1745672549.061,-78.613,-59.570,-78.613,-95.703,0.000
1745672549.065,-31.250,-33.203,-19.043,-35.645,0.000
1745672549.069,-6.348,-6.836,21.973,4.883,0.000
1745672549.073,-48.828,-27.832,-26.855,-37.598,0.000
1745672549.077,-84.961,-49.316,-71.289,-85.938,0.000
1745672549.081,-48.340,-38.574,-29.785,-42.969,0.000
1745672549.085,-1.953,-20.508,32.715,29.297,0.000
1745672549.089,-17.578,-23.438,-0.488,0.977,0.000
1745672549.093,-65.918,-53.711,-72.266,-66.406,0.000
1745672549.097,-53.711,-48.340,-47.852,-51.758,0.000
1745672549.100,-0.977,-16.113,23.438,12.207,0.000
1745672549.104,-6.348,-17.578,15.137,9.277,0.000
1745672549.108,-67.871,-40.039,-60.547,-54.199,0.000
1745672549.112,-71.289,-41.504,-70.312,-65.430,0.000
1745672549.116,-11.230,-19.531,0.488,-13.184,0.000
1745672549.120,5.371,-9.766,14.648,8.301,0.000
1745672549.124,-41.992,-37.598,-48.340,-65.918,0.000
1745672549.128,-71.777,-55.664,-82.520,-119.141,0.000
1745672549.132,-26.367,-30.762,-32.227,-63.477,0.000
1745672549.136,14.648,0.000,23.438,-13.672,0.000
1745672549.140,-23.926,-21.973,-19.043,-46.875,0.000
1745672549.143,-68.359,-61.523,-90.820,-97.656,0.000
1745672549.147,-35.156,-38.086,-57.129,-63.477,0.000
1745672549.151,17.578,-4.883,20.996,1.953,0.000
1745672549.155,-7.812,-23.438,-10.254,-17.090,0.000
1745672549.159,-75.684,-66.895,-84.473,-78.125,0.000
1745672549.163,-64.941,-56.641,-57.129,-62.988,0.000
1745672549.167,-8.789,-14.160,12.207,0.000,0.000
1745672549.171,-7.812,-9.277,6.836,7.812,0.000
1745672549.175,-57.617,-44.922,-65.918,-53.711,0.000
1745672549.179,-73.242,-55.664,-85.449,-71.289,0.000
1745672549.183,-17.090,-10.742,-8.789,-12.695,0.000
1745672549.186,10.254,4.395,28.320,10.742,0.000
1745672549.190,-45.410,-40.039,-51.758,-45.898,0.000
1745672549.194,-83.984,-65.918,-96.680,-94.238,0.000
1745672549.198,-36.133,-35.156,-29.297,-38.574,0.000
1745672549.202,10.254,-6.348,29.297,28.809,0.000
1745672549.206,-29.297,-29.297,-24.414,-1.953,0.000
1745672549.210,-75.195,-60.059,-96.191,-71.289,0.000
1745672549.214,-39.062,-41.992,-56.641,-64.453,0.000
1745672549.218,21.973,-0.977,23.926,-3.418,0.000
1745672549.222,-0.488,-16.113,-15.137,-25.391,0.000
1745672549.225,-62.012,-53.223,-98.145,-90.820,0.000
1745672549.229,-58.105,-41.992,-68.359,-84.961,0.000
1745672549.233,1.465,0.000,4.883,-11.230,0.000
1745672549.237,15.625,-4.395,8.789,1.465,0.000
1745672549.241,-47.363,-44.434,-72.754,-63.965,0.000
1745672549.245,-71.289,-52.246,-92.773,-85.449,0.000
1745672549.249,-13.184,-18.066,-11.719,-27.832,0.000
1745672549.253,16.113,2.441,22.461,9.766,0.000
1745672549.257,-36.133,-27.832,-43.945,-44.434,0.000
1745672549.261,-73.730,-55.176,-104.004,-97.656,0.000
1745672549.265,-32.715,-32.227,-53.223,-51.270,0.000
1745672549.268,21.484,7.812,29.785,16.113,0.000
1745672549.272,-9.766,-15.137,-8.789,-17.578,0.000
1745672549.276,-70.801,-54.688,-77.148,-80.078,0.000
1745672549.280,-49.316,-42.969,-47.852,-53.711,0.000
1745672549.284,5.371,-5.859,8.789,20.020,0.000
1745672549.288,-3.906,-3.906,-8.301,7.324,0.000
1745672549.292,-56.152,-45.898,-74.219,-58.105,0.000
1745672549.296,-57.617,-55.176,-79.590,-59.082,0.000
1745672549.300,-1.953,-18.066,-4.883,-8.789,0.000
1745672549.304,8.789,-6.348,11.230,-1.953,0.000
1745672549.308,-52.246,-41.992,-60.059,-75.684,0.000
1745672549.311,-74.219,-52.246,-89.844,-90.820,0.000
1745672549.315,-17.578,-22.949,-25.879,-13.184,0.000
1745672549.319,11.230,-3.418,22.949,34.668,0.000
1745672549.323,-31.250,-25.879,-34.668,-22.949,0.000
1745672549.327,-70.312,-62.500,-106.445,-92.285,0.000
1745672549.331,-21.973,-44.922,-60.059,-46.875,0.000
1745672549.335,31.738,-6.836,26.367,10.742,0.000
1745672549.339,-20.020,-27.344,-6.348,-25.879,0.000
1745672549.343,-82.520,-65.918,-85.938,-98.145,0.000
1745672549.347,-64.453,-43.945,-70.312,-82.520,0.000
1745672549.350,-15.625,-7.812,-0.977,-3.418,0.000
1745672549.354,-25.879,-20.508,-0.977,-4.883,0.000
1745672549.358,-86.914,-58.105,-66.406,-80.078,0.000
1745672549.362,-96.191,-62.988,-81.543,-104.980,0.000
1745672549.366,-40.039,-23.926,-18.555,-45.410,0.000
1745672549.370,-22.949,-12.695,9.277,-17.578,0.000
1745672549.374,-69.336,-42.969,-53.711,-65.430,0.000
1745672549.378,-86.914,-54.199,-95.703,-85.449,0.000
1745672549.382,-40.039,-36.133,-41.504,-33.691,0.000
1745672549.386,1.953,-14.648,20.020,13.184,0.000
1745672549.390,-36.133,-36.133,-28.809,-25.391,0.000
1745672549.393,-85.449,-57.129,-100.586,-79.102,0.000
1745672549.397,-40.039,-39.551,-56.152,-38.574,0.000
1745672549.401,17.090,-11.230,18.555,26.855,0.000
1745672549.405,-12.695,-3.418,-8.789,-9.277,0.000
1745672549.409,-73.730,-39.062,-83.496,-80.078,0.000
1745672549.413,-61.523,-42.969,-75.684,-62.012,0.000
1745672549.417,3.418,-1.465,-2.930,1.465,0.000
1745672549.421,7.812,-13.672,7.812,3.418,0.000
1745672549.425,-54.199,-68.359,-65.918,-58.105,0.000
1745672549.429,-64.941,-57.617,-90.820,-69.824,0.000
1745672549.433,-9.277,-27.344,-22.461,1.465,0.000
1745672549.436,15.625,-19.531,5.859,24.902,0.000
1745672549.440,-44.922,-40.039,-61.523,-46.875,0.000
1745672549.444,-85.449,-59.082,-102.051,-83.008,0.000
1745672549.448,-31.250,-36.621,-50.293,-22.461,0.000
1745672549.452,14.648,-9.766,12.695,29.785,0.000
1745672549.456,-28.809,-29.785,-29.297,-13.672,0.000
1745672549.460,-75.195,-58.105,-94.727,-75.195,0.000
1745672549.464,-37.109,-30.762,-59.570,-44.434,0.000
1745672549.468,18.555,5.859,20.020,22.949,0.000
1745672549.472,-7.324,-16.602,0.000,1.465,0.000
1745672549.475,-68.359,-62.500,-80.078,-66.895,0.000
1745672549.479,-58.594,-54.688,-69.336,-64.453,0.000
1745672549.483,2.930,-10.742,6.348,15.625,0.000
1745672549.487,7.324,-10.742,13.672,44.922,0.000
1745672549.491,-52.246,-45.898,-63.477,-26.367,0.000
1745672549.495,-70.801,-59.570,-93.262,-62.500,0.000
1745672549.499,-12.695,-26.855,-24.902,-10.254,0.000
1745672549.503,23.926,0.977,23.438,29.785,0.000
1745672549.507,-31.738,-26.855,-39.551,-20.020,0.000
1745672549.511,-73.730,-46.387,-98.633,-80.566,0.000
1745672549.515,-26.855,-23.926,-46.387,-34.668,0.000
1745672549.518,20.508,-3.418,17.578,30.273,0.000
1745672549.522,-15.625,-25.879,-29.785,-5.371,0.000
1745672549.526,-71.289,-55.664,-103.027,-65.430,0.000
1745672549.530,-40.527,-31.250,-66.406,-24.902,0.000
1745672549.534,14.160,0.000,-5.859,34.668,0.000
1745672549.538,-9.277,-16.113,-11.230,16.113,0.000
1745672549.542,-70.312,-50.293,-67.383,-41.504,0.000
1745672549.546,-71.289,-54.199,-83.984,-46.387,0.000
1745672549.550,-8.789,-25.391,-3.418,21.484,0.000
1745672549.554,9.766,-11.719,16.602,38.574,0.000
1745672549.558,-39.062,-30.273,-58.105,-20.508,0.000
1745672549.561,-62.500,-46.875,-87.891,-36.621,0.000
1745672549.565,-18.555,-31.250,-32.715,11.719,0.000
1745672549.569,23.438,-4.395,26.855,47.363,0.000
1745672549.573,-14.648,-19.531,-17.578,6.348,0.000
1745672549.577,-62.988,-49.805,-83.984,-62.012,0.000
1745672549.581,-27.832,-32.227,-43.945,-40.039,0.000
1745672549.585,15.625,-1.465,19.043,19.531,0.000
1745672549.589,-22.949,-16.602,-21.484,-6.348,0.000
1745672549.593,-81.055,-57.617,-94.238,-68.848,0.000
1745672549.597,-59.082,-53.711,-69.336,-49.316,0.000
1745672549.600,0.488,-14.160,7.324,11.230,0.000
1745672549.604,-5.371,-8.789,8.301,-0.488,0.000
1745672549.608,-69.824,-47.852,-75.195,-78.125,0.000
1745672549.612,-81.543,-63.965,-92.773,-90.332,0.000
1745672549.616,-16.113,-23.438,-18.555,-23.438,0.000
1745672549.620,7.324,-13.184,9.277,3.906,0.000
1745672549.624,-41.992,-44.434,-55.664,-47.363,0.000
1745672549.628,-66.406,-52.246,-98.633,-85.938,0.000
1745672549.632,-18.066,-27.344,-42.480,-41.992,0.000
1745672549.636,37.109,1.465,19.531,9.277,0.000
1745672549.640,-2.441,-14.648,-24.902,-28.809,0.000
1745672549.643,-63.965,-52.246,-95.215,-84.473,0.000
1745672549.647,-20.508,-32.227,-52.734,-39.551,0.000
1745672549.651,32.715,7.324,23.926,25.391,0.000
1745672549.655,-0.488,-12.207,-17.090,4.883,0.000
1745672549.659,-64.453,-57.129,-102.539,-58.594,0.000
1745672549.663,-61.035,-48.340,-85.938,-50.781,0.000
1745672549.667,-0.488,-8.789,-0.488,19.531,0.000
1745672549.671,2.930,-11.719,13.184,25.391,0.000
1745672549.675,-57.617,-47.363,-66.406,-37.109,0.000
1745672549.679,-72.754,-60.547,-92.285,-56.641,0.000
1745672549.682,-16.602,-31.250,-15.137,4.883,0.000
1745672549.686,11.230,-10.254,24.902,40.039,0.000
1745672549.690,-46.387,-33.691,-38.086,-10.742,0.000
1745672549.694,-83.984,-52.734,-92.773,-48.340,0.000
1745672549.698,-31.738,-24.902,-45.898,-12.695,0.000
1745672549.702,11.719,0.977,23.438,20.996,0.000
1745672549.706,-23.926,-23.438,-18.066,-27.832,0.000
1745672549.710,-75.684,-56.641,-95.215,-99.121,0.000
1745672549.714,-41.992,-39.062,-66.895,-74.707,0.000
1745672549.718,25.391,2.441,10.742,-5.859,0.000
1745672549.722,1.465,-13.672,-1.953,-14.160,0.000
1745672549.725,-65.918,-61.035,-98.145,-73.730,0.000
1745672549.729,-53.711,-58.105,-90.820,-67.383,0.000
1745672549.733,3.418,-15.137,20.508,5.859,0.000
1745672549.737,-2.441,-8.789,30.273,22.949,0.000
1745672549.741,-58.594,-43.457,-52.734,-51.758,0.000
1745672549.745,-77.637,-59.082,-83.008,-84.473,0.000
1745672549.749,-16.113,-26.367,-13.184,-21.484,0.000
1745672549.753,27.344,-5.371,29.785,16.113,0.000
1745672549.757,-26.855,-37.109,-43.945,-41.504,0.000
1745672549.761,-83.008,-64.941,-109.375,-83.008,0.000
1745672549.765,-53.711,-42.480,-51.758,-34.668,0.000
1745672549.768,-0.977,-8.789,21.484,15.137,0.000
1745672549.772,-35.645,-26.367,-16.602,-19.531,0.000
1745672549.776,-99.609,-61.523,-95.703,-90.332,0.000
1745672549.780,-61.035,-44.434,-83.008,-65.918,0.000
1745672549.784,4.883,-5.371,6.836,12.695,0.000
1745672549.788,-18.066,-9.766,11.230,-5.859,0.000
1745672549.792,-76.660,-42.969,-78.125,-86.914,0.000
1745672549.796,-69.336,-43.945,-82.520,-84.961,0.000
1745672549.800,-6.836,-16.602,-1.953,-14.648,0.000
1745672549.804,6.348,-15.625,15.625,-2.441,0.000
1745672549.807,-46.387,-48.340,-68.359,-61.035,0.000
1745672549.811,-76.172,-61.035,-112.305,-79.102,0.000
1745672549.815,-37.109,-29.297,-32.227,-38.086,0.000
1745672549.819,-2.441,-2.930,25.391,-1.953,0.000
1745672549.823,-52.246,-30.762,-40.039,-45.410,0.000
1745672549.827,-92.285,-61.035,-103.027,-100.098,0.000
1745672549.831,-46.875,-37.109,-53.223,-56.152,0.000
1745672549.835,8.301,-1.465,10.254,9.766,0.000
1745672549.839,-22.461,-10.254,-11.719,-17.578,0.000
1745672549.843,-86.914,-51.270,-84.961,-93.262,0.000
1745672549.847,-60.547,-51.270,-72.266,-74.707,0.000
1745672549.850,10.742,-5.371,21.484,6.348,0.000
1745672549.854,2.441,-10.742,19.043,-4.883,0.000
1745672549.858,-67.383,-51.758,-69.824,-85.938,0.000
1745672549.862,-74.707,-51.270,-85.449,-96.191,0.000
1745672549.866,-6.348,-14.160,-6.836,-25.391,0.000
1745672549.870,12.207,0.977,22.461,2.930,0.000
1745672549.874,-50.781,-36.621,-50.781,-63.965,0.000
1745672549.878,-83.984,-58.594,-102.051,-111.328,0.000
1745672549.882,-26.855,-26.367,-30.762,-50.781,0.000
1745672549.886,16.113,2.441,33.203,5.371,0.000
1745672549.890,-46.875,-21.973,-30.762,-51.758,0.000
1745672549.893,-114.258,-62.012,-107.422,-120.605,0.000
1745672549.897,-80.078,-41.992,-58.105,-81.055,0.000
1745672549.901,-17.090,0.000,26.855,-16.113,0.000
1745672549.905,-54.688,-10.254,-1.953,-49.316,0.000
1745672549.909,-136.719,-49.316,-93.262,-127.441,0.000
1745672549.913,-116.211,-39.062,-80.078,-123.047,0.000
1745672549.917,-42.480,7.812,17.578,-25.391,0.000
1745672549.921,-53.223,9.766,24.902,-19.043,0.000
1745672549.925,-126.953,-35.156,-56.641,-119.629,0.000
1745672549.929,-145.020,-46.875,-83.008,-155.762,0.000
1745672549.932,-90.332,-0.977,-4.395,-98.633,0.000
1745672549.936,-59.570,25.879,37.598,-65.918,0.000
1745672549.940,-114.746,-16.113,-37.109,-130.371,0.000
1745672549.944,-162.109,-41.992,-96.191,-185.059,0.000
1745672549.948,-118.164,-15.625,-37.109,-135.254,0.000
1745672549.952,-66.895,3.418,41.992,-66.406,0.000
1745672549.956,-103.516,-15.625,-7.812,-101.074,0.000
1745672549.960,-153.320,-43.945,-98.633,-156.738,0.000
1745672549.964,-121.582,-38.574,-60.547,-113.281,0.000
1745672549.968,-58.105,-3.906,26.367,-39.551,0.000
1745672549.972,-67.383,-5.371,-1.465,-52.246,0.000
1745672549.975,-127.441,-47.852,-83.496,-113.770,0.000
1745672549.979,-107.422,-34.668,-72.266,-98.633,0.000
1745672549.983,-24.902,7.812,8.301,-16.113,0.000
1745672549.987,-9.766,2.441,14.160,1.465,0.000
1745672549.991,-65.918,-40.039,-63.477,-75.684,0.000
1745672549.995,-85.449,-58.594,-94.727,-102.051,0.000
1745672549.999,-20.996,-16.602,-15.625,-23.926,0.000
1745672550.003,25.879,8.789,40.527,32.227,0.000
1745672550.007,-22.461,-26.855,-26.367,-10.742,0.000
1745672550.011,-72.266,-59.570,-95.215,-60.547,0.000
1745672550.015,-20.020,-30.273,-46.875,-8.789,0.000
1745672550.018,39.062,4.395,33.203,60.059,0.000
1745672550.022,2.930,-18.066,-1.465,21.484,0.000
1745672550.026,-53.711,-47.852,-84.473,-58.105,0.000
1745672550.030,-20.508,-36.133,-59.570,-34.180,0.000
1745672550.034,56.152,-7.812,27.832,44.922,0.000
1745672550.038,35.645,-15.137,15.137,39.062,0.000
1745672550.042,-40.039,-53.223,-75.684,-34.180,0.000
1745672550.046,-40.527,-58.105,-83.496,-36.621,0.000
1745672550.050,25.879,-16.602,0.488,36.621,0.000
1745672550.054,44.922,-5.859,25.391,56.152,0.000
1745672550.057,-17.578,-44.922,-60.059,-17.090,0.000
1745672550.061,-49.805,-66.406,-104.492,-51.758,0.000
1745672550.065,9.277,-25.879,-28.320,13.184,0.000
1745672550.069,52.734,1.953,32.227,63.965,0.000
1745672550.073,-1.465,-31.250,-27.832,7.812,0.000
1745672550.077,-58.594,-65.430,-102.539,-65.918,0.000
1745672550.081,-18.066,-47.363,-51.270,-21.484,0.000
1745672550.085,42.480,-6.836,29.297,48.828,0.000
1745672550.089,8.789,-23.926,-11.719,16.602,0.000
1745672550.093,-50.781,-72.754,-97.656,-55.176,0.000
1745672550.097,-20.996,-53.711,-72.754,-41.016,0.000
1745672550.100,46.875,0.488,16.602,33.203,0.000
1745672550.104,33.203,-9.766,17.090,35.156,0.000
1745672550.108,-46.387,-57.129,-72.266,-45.898,0.000
1745672550.112,-62.988,-60.547,-94.727,-62.500,0.000
1745672550.116,8.301,-17.090,-7.324,17.578,0.000
1745672550.120,39.062,4.883,34.180,52.734,0.000
1745672550.124,-23.926,-27.832,-47.852,-14.160,0.000
1745672550.128,-61.523,-57.617,-98.633,-52.246,0.000
1745672550.132,-2.441,-30.273,-25.879,0.488,0.000
1745672550.136,44.922,-1.953,40.527,53.223,0.000
1745672550.140,-3.906,-27.344,-14.648,10.742,0.000
1745672550.143,-61.523,-59.570,-93.262,-65.430,0.000
1745672550.147,-27.344,-37.598,-43.945,-31.250,0.000
1745672550.151,37.109,1.953,39.062,39.551,0.000
1745672550.155,9.766,-18.066,2.441,8.301,0.000
1745672550.159,-66.406,-62.500,-81.055,-65.918,0.000
1745672550.163,-50.293,-49.316,-67.871,-52.734,0.000
1745672550.167,22.949,1.953,22.461,27.344,0.000
1745672550.171,17.578,-5.371,28.320,39.062,0.000
1745672550.175,-46.875,-56.152,-64.453,-37.109,0.000
1745672550.179,-61.523,-55.664,-96.191,-66.406,0.000
1745672550.182,-1.953,-23.438,-9.766,0.000,0.000
1745672550.186,30.762,-0.977,48.828,43.457,0.000
1745672550.190,-39.062,-28.809,-26.367,-27.832,0.000
1745672550.194,-95.215,-64.453,-96.191,-97.168,0.000
1745672550.198,-45.898,-34.180,-35.645,-38.086,0.000
1745672550.202,7.324,3.906,47.852,31.250,0.000
1745672550.206,-38.574,-16.113,-2.441,-28.809,0.000
1745672550.210,-103.516,-53.711,-87.402,-88.867,0.000
1745672550.214,-73.242,-31.738,-38.574,-48.340,0.000
1745672550.218,-20.996,2.930,46.387,4.883,0.000
1745672550.222,-48.828,-15.625,16.602,-19.531,0.000
1745672550.225,-128.906,-60.059,-72.754,-103.516,0.000
1745672550.229,-140.625,-58.105,-65.430,-130.371,0.000
1745672550.233,-70.801,-8.301,36.133,-78.613,0.000
1745672550.237,-74.219,-3.906,52.246,-72.754,0.000
1745672550.241,-165.527,-48.340,-36.133,-150.879,0.000
1745672550.245,-205.566,-68.848,-67.871,-190.430,0.000
1745672550.249,-148.438,-30.273,7.812,-143.066,0.000
1745672550.253,-114.746,-2.930,63.965,-107.422,0.000
1745672550.257,-181.152,-30.762,0.488,-174.316,0.000
1745672550.261,-235.352,-57.129,-67.871,-231.934,0.000
1745672550.265,-194.336,-41.016,-9.277,-180.176,0.000
1745672550.268,-135.742,-15.625,72.266,-109.375,0.000
1745672550.272,-171.875,-39.551,21.484,-151.367,0.000
1745672550.276,-228.027,-79.102,-62.988,-221.680,0.000
1745672550.280,-185.059,-56.152,-11.719,-170.898,0.000
1745672550.284,-110.840,-7.324,73.730,-81.543,0.000
1745672550.288,-116.211,-16.602,42.480,-93.262,0.000
1745672550.292,-172.852,-58.594,-38.574,-167.480,0.000
1745672550.296,-169.434,-60.547,-41.504,-155.762,0.000
1745672550.300,-92.773,-18.066,45.898,-65.430,0.000
1745672550.304,-58.105,-4.883,71.289,-28.320,0.000
1745672550.307,-103.027,-41.016,-17.578,-84.473,0.000
1745672550.311,-127.930,-61.523,-69.336,-114.746,0.000
1745672550.315,-55.664,-25.391,-3.418,-36.621,0.000
1745672550.319,0.000,3.418,52.246,31.250,0.000
1745672550.323,-45.410,-25.879,-6.836,-17.090,0.000
1745672550.327,-90.820,-61.523,-73.242,-78.613,0.000
1745672550.331,-44.922,-37.109,-29.785,-24.414,0.000
1745672550.335,27.832,-3.906,42.480,57.129,0.000
1745672550.339,6.836,-25.879,0.977,40.527,0.000
1745672550.343,-44.922,-52.246,-97.168,-22.461,0.000
1745672550.347,-16.602,-43.945,-72.266,-16.113,0.000
1745672550.350,51.270,-5.371,15.625,56.641,0.000
1745672550.354,47.363,1.465,14.648,61.035,0.000
1745672550.358,-18.555,-44.434,-84.961,-8.789,0.000
1745672550.362,-26.855,-58.105,-106.934,-16.602,0.000
1745672550.366,42.969,-16.113,-18.066,59.570,0.000
1745672550.370,70.801,2.441,9.277,94.727,0.000
1745672550.374,9.766,-24.414,-64.453,32.227,0.000
1745672550.378,-21.973,-47.852,-106.934,-19.531,0.000
1745672550.382,35.645,-23.926,-46.387,28.320,0.000
1745672550.386,85.938,1.953,10.742,85.449,0.000
1745672550.389,39.551,-28.809,-42.480,41.504,0.000
1745672550.393,-14.160,-56.641,-120.605,-29.785,0.000
1745672550.397,29.785,-27.832,-71.777,9.277,0.000
1745672550.401,93.262,10.742,21.973,89.355,0.000
1745672550.405,67.871,-6.348,-10.742,62.012,0.000
1745672550.409,-5.859,-60.547,-104.004,-22.461,0.000
1745672550.413,11.230,-51.270,-89.355,-12.695,0.000
1745672550.417,86.914,-0.488,3.906,71.777,0.000
1745672550.421,83.496,-0.977,12.695,78.125,0.000
1745672550.425,7.812,-41.016,-75.195,-2.930,0.000
1745672550.429,-13.672,-54.199,-97.168,-25.879,0.000
1745672550.432,52.246,-20.996,-13.184,46.875,0.000
1745672550.436,82.520,7.812,28.320,91.797,0.000
1745672550.440,21.484,-27.832,-44.922,29.297,0.000
1745672550.444,-24.902,-60.547,-103.027,-26.367,0.000
1745672550.448,20.508,-26.367,-37.598,32.715,0.000
1745672550.452,72.754,9.766,32.227,88.379,0.000
1745672550.456,30.762,-24.414,-22.949,42.969,0.000
1745672550.460,-26.855,-69.824,-100.098,-27.832,0.000
1745672550.464,6.836,-46.875,-64.941,-8.301,0.000
1745672550.468,58.594,-12.207,-3.418,65.918,0.000
1745672550.472,36.621,-20.020,-25.879,52.734,0.000
1745672550.475,-20.996,-52.246,-87.402,-27.344,0.000
1745672550.479,-19.043,-55.664,-85.449,-33.203,0.000
1745672550.483,46.387,-6.836,0.977,42.969,0.000
1745672550.487,54.688,0.977,17.578,63.477,0.000
1745672550.491,-8.301,-47.363,-66.406,-12.695,0.000
1745672550.495,-28.809,-55.176,-99.609,-49.316,0.000
1745672550.499,28.809,-23.438,-29.297,20.996,0.000
1745672550.503,62.012,-20.508,24.902,70.801,0.000
1745672550.507,8.789,-39.062,-38.086,18.066,0.000
1745672550.511,-34.180,-55.176,-98.145,-41.504,0.000
1745672550.514,8.789,-39.551,-46.875,-9.277,0.000
1745672550.518,57.617,-9.277,16.602,48.340,0.000
1745672550.522,23.438,-25.879,-23.926,9.766,0.000
1745672550.526,-32.715,-57.617,-91.797,-61.035,0.000
1745672550.530,-16.602,-44.922,-70.801,-38.574,0.000
1745672550.534,32.227,-9.766,9.766,33.203,0.000
1745672550.538,17.578,-15.625,6.836,24.414,0.000
1745672550.542,-41.992,-50.781,-76.172,-51.270,0.000
1745672550.546,-35.645,-47.363,-79.590,-59.082,0.000
1745672550.550,18.555,-16.113,-10.742,11.230,0.000
1745672550.554,30.762,-16.602,2.441,30.273,0.000
1745672550.557,-22.949,-53.223,-64.941,-40.527,0.000
1745672550.561,-59.570,-71.777,-99.121,-70.312,0.000
1745672550.565,-11.230,-34.668,-32.227,-5.859,0.000
1745672550.569,31.250,0.000,21.484,45.410,0.000
1745672550.573,-15.137,-31.738,-39.551,-11.719,0.000
1745672550.577,-64.453,-62.012,-104.980,-83.984,0.000
1745672550.581,-34.180,-42.480,-61.035,-39.062,0.000
1745672550.585,13.672,-10.254,10.254,29.785,0.000
1745672550.589,-4.883,-20.020,-10.742,0.977,0.000
1745672550.593,-62.988,-66.895,-90.820,-69.336,0.000
1745672550.597,-60.059,-62.500,-83.008,-53.711,0.000
1745672550.600,3.418,-14.648,-2.930,22.949,0.000
1745672550.604,11.230,-6.348,-8.301,13.184,0.000
1745672550.608,-48.828,-46.387,-84.961,-70.312,0.000
1745672550.612,-63.477,-65.430,-95.215,-84.473,0.000
1745672550.616,-4.395,-18.066,-14.648,-9.766,0.000
1745672550.620,15.137,5.859,28.320,28.320,0.000
1745672550.624,-42.480,-31.738,-37.598,-25.879,0.000
1745672550.628,-68.848,-56.641,-88.867,-69.824,0.000
1745672550.632,-21.973,-29.785,-31.738,-9.277,0.000
1745672550.636,14.648,4.883,34.180,44.922,0.000
1745672550.639,-17.090,-18.066,-15.625,-18.555,0.000
1745672550.643,-66.406,-63.965,-98.145,-78.613,0.000
1745672550.647,-45.410,-53.223,-68.848,-45.410,0.000
1745672550.651,16.113,-18.066,10.742,29.785,0.000
1745672550.655,3.906,-25.879,-4.395,13.672,0.000
1745672550.659,-57.129,-52.734,-81.543,-69.824,0.000
1745672550.663,-49.316,-42.969,-76.172,-68.359,0.000
