timestamps,TP9,AF7,AF8,TP10,Right AUX
1744258930.511,-67.383,-42.480,-120.117,-32.227,57.129
1744258930.515,6.348,-28.809,61.035,0.977,42.480
1744258930.519,29.297,-21.484,98.145,1.465,-37.598
1744258930.523,-47.363,-38.086,-94.238,-32.715,-29.785
1744258930.526,-96.191,-44.922,-182.129,-55.176,20.020
1744258930.530,-21.973,-24.414,0.488,-18.555,39.062
1744258930.534,37.109,-18.555,122.559,8.301,25.391
1744258930.538,-21.973,-35.156,-40.527,-33.203,-49.316
1744258930.542,-94.238,-43.945,-197.266,-65.430,-77.148
1744258930.546,-46.387,-30.273,-64.453,-32.715,12.695
1744258930.550,30.273,-19.043,102.539,1.953,-25.879
1744258930.554,-9.766,-30.762,1.953,-25.391,-91.309
1744258930.558,-93.750,-41.016,-167.969,-60.547,-22.949
1744258930.562,-77.148,-32.227,-101.562,-30.273,57.617
1744258930.566,10.254,-18.066,86.426,8.301,65.430
1744258930.569,11.719,-20.996,61.035,-11.719,-14.160
1744258930.573,-79.102,-40.527,-131.836,-58.105,-26.367
1744258930.577,-93.750,-42.969,-144.043,-61.035,-20.996
1744258930.581,-5.371,-30.762,46.875,-27.832,-20.996
1744258930.585,25.391,-37.598,101.074,-17.578,-67.871
1744258930.589,-50.293,-50.293,-87.891,-45.898,-110.352
1744258930.593,-98.145,-50.293,-195.801,-60.547,-75.684
1744258930.597,-27.832,-30.273,-27.344,-26.367,25.879
1744258930.601,41.992,-11.719,122.559,3.906,15.625
1744258930.605,-20.020,-28.809,-24.414,-34.668,0.977
1744258930.609,-102.051,-41.016,-186.035,-68.359,33.203
1744258930.612,-57.617,-29.297,-68.359,-41.016,43.945
1744258930.616,25.879,-14.648,100.586,-16.602,41.992
1744258930.620,4.883,-22.461,24.414,-32.715,18.555
1744258930.624,-82.031,-41.992,-158.203,-64.941,-45.410
1744258930.628,-66.406,-30.273,-109.375,-53.223,-21.484
1744258930.632,26.367,-22.949,71.289,-9.277,40.527
1744258930.636,16.602,-27.832,60.059,-13.184,-85.449
1744258930.640,-64.453,-35.645,-123.047,-50.781,-115.234
1744258930.644,-83.984,-42.480,-165.039,-44.922,-4.883
1744258930.648,-19.043,-28.320,19.531,-2.441,146.484
1744258930.652,23.926,-21.484,106.445,5.371,127.930
1744258930.655,-36.133,-33.691,-62.012,-30.762,-15.137
1744258930.659,-89.355,-38.574,-190.430,-54.199,-35.645
1744258930.663,-36.621,-20.020,-38.086,-20.508,41.504
1744258930.667,30.273,-16.113,116.699,7.324,20.996
1744258930.671,-21.484,-25.879,0.977,-20.508,-123.047
1744258930.675,-102.539,-32.227,-164.551,-52.246,-128.418
1744258930.679,-68.359,-29.297,-78.125,-43.945,-35.645
1744258930.683,9.277,-20.508,94.238,-5.859,2.930
1744258930.687,-5.859,-26.367,34.668,-7.324,-42.480
1744258930.691,-76.172,-41.992,-153.320,-54.688,-73.730
1744258930.694,-78.613,-39.062,-118.652,-47.852,-75.684
1744258930.698,-5.859,-25.391,79.590,-2.441,-14.160
1744258930.702,10.254,-31.250,81.055,0.488,19.043
1744258930.706,-70.801,-49.316,-120.605,-47.852,-110.840
1744258930.710,-91.797,-44.434,-180.176,-62.012,-122.559
1744258930.714,-13.672,-22.461,9.766,-19.043,-27.344
1744258930.718,27.832,-16.602,125.488,-3.418,-55.664
1744258930.722,-40.039,-26.367,-25.879,-43.457,-109.375
1744258930.726,-106.934,-38.574,-178.223,-67.383,-29.297
1744258930.730,-61.523,-39.062,-62.500,-33.691,84.961
1744258930.734,11.230,-30.762,103.516,-3.418,55.176
1744258930.737,-22.461,-37.598,-4.883,-24.414,-6.348
1744258930.741,-102.051,-43.945,-179.199,-60.547,-22.461
1744258930.745,-71.289,-32.227,-94.238,-46.387,65.430
1744258930.749,13.672,-24.902,94.238,-2.441,101.074
1744258930.753,9.766,-25.391,51.758,-14.648,8.301
1744258930.757,-63.965,-35.645,-134.277,-56.641,-68.359
1744258930.761,-80.078,-36.133,-131.836,-51.758,-65.430
1744258930.765,0.000,-20.996,58.594,-15.137,6.348
1744258930.769,38.086,-13.184,113.281,-5.859,46.387
1744258930.773,-41.992,-33.203,-76.172,-41.992,-44.434
1744258930.777,-93.750,-41.016,-175.293,-52.734,-113.770
1744258930.780,-26.855,-20.020,0.977,-14.160,-52.734
1744258930.784,26.367,-20.508,116.211,3.418,-72.754
1744258930.788,-37.109,-33.691,-25.391,-19.043,-81.543
1744258930.792,-107.910,-41.504,-180.176,-62.500,-70.312
1744258930.796,-55.664,-32.227,-69.824,-41.992,-83.496
1744258930.800,23.438,-15.137,110.352,3.906,-41.016
1744258930.804,-10.254,-24.414,19.531,-17.578,-108.398
1744258930.808,-91.797,-39.551,-172.363,-61.523,-86.914
1744258930.812,-82.031,-29.785,-116.211,-52.246,-8.789
1744258930.816,6.348,-11.719,80.078,-17.090,42.480
1744258930.819,20.996,-15.625,62.988,-24.902,64.941
1744258930.823,-62.500,-37.598,-139.648,-57.617,-4.883
1744258930.827,-81.543,-35.645,-176.270,-62.988,96.680
1744258930.831,0.488,-23.438,13.184,-18.555,150.391
1744258930.835,35.156,-23.438,88.379,-2.930,57.129
1744258930.839,-33.691,-26.855,-75.684,-42.969,-23.438
1744258930.843,-86.426,-34.180,-178.223,-64.941,-61.523
1744258930.847,-25.879,-29.297,-23.926,-25.391,24.414
1744258930.851,45.898,-24.902,110.352,15.137,81.055
1744258930.855,-5.371,-36.133,-21.484,-20.020,-14.648
1744258930.859,-89.844,-43.945,-168.945,-54.688,-110.352
1744258930.862,-51.270,-33.203,-62.988,-29.785,-113.281
1744258930.866,27.344,-20.020,99.609,-1.465,-87.891
1744258930.870,3.906,-26.855,28.809,-21.973,-127.441
1744258930.874,-75.684,-39.062,-149.902,-54.688,-121.582
1744258930.878,-75.195,-37.109,-119.629,-47.852,-41.992
1744258930.882,6.836,-27.832,63.965,-6.348,-8.301
1744258930.886,21.484,-30.762,74.707,-8.789,-13.184
1744258930.890,-59.082,-50.293,-121.582,-57.129,-13.672
1744258930.894,-92.773,-52.246,-177.734,-53.711,35.645
1744258930.898,-26.367,-37.109,4.395,-22.461,69.824
1744258930.902,16.113,-25.391,98.145,-16.602,25.391
1744258930.905,-45.898,-34.180,-58.105,-43.457,-32.227
1744258930.909,-98.145,-49.316,-187.988,-65.430,-26.855
1744258930.913,-42.480,-36.621,-60.059,-42.480,12.207
1744258930.917,24.414,-20.508,97.656,-10.254,-1.953
1744258930.921,-9.766,-39.551,-10.254,-31.738,-113.281
1744258930.925,-80.566,-44.922,-173.828,-62.012,-135.742
1744258930.929,-54.199,-23.438,-90.820,-39.551,-74.707
1744258930.933,22.949,-14.160,84.961,-4.883,-30.273
1744258930.937,5.371,-26.367,42.969,-17.090,-50.781
1744258930.941,-81.543,-42.480,-155.273,-56.152,-54.688
1744258930.944,-91.309,-40.527,-153.809,-53.711,29.297
1744258930.948,-0.977,-20.996,51.270,-9.766,102.539
1744258930.952,25.391,-16.113,89.355,-3.906,31.738
1744258930.956,-62.012,-35.645,-93.262,-54.199,-84.961
1744258930.960,-105.469,-45.410,-180.176,-71.289,-38.574
1744258930.964,-24.902,-33.691,-13.672,-34.668,17.090
1744258930.968,19.043,-27.344,81.543,-6.836,-8.301
1744258930.972,-53.223,-42.969,-79.590,-24.414,-19.531
1744258930.976,-108.398,-43.945,-183.594,-62.012,-25.391
1744258930.980,-57.129,-34.668,-54.199,-38.574,7.324
1744258930.984,23.926,-30.762,103.027,-1.465,-4.395
1744258930.987,-13.184,-42.480,-0.977,-26.855,-95.215
1744258930.991,-99.121,-48.340,-181.641,-61.035,-104.492
1744258930.995,-70.801,-31.738,-102.539,-43.945,-18.555
1744258930.999,25.879,-26.855,89.355,1.465,-2.441
1744258931.003,15.625,-31.738,49.805,-9.766,-85.449
1744258931.007,-79.590,-37.598,-153.809,-58.594,-76.172
1744258931.011,-90.332,-35.156,-165.039,-63.965,-3.906
1744258931.015,-2.441,-15.137,31.738,-19.043,51.758
1744258931.019,30.273,-14.160,84.961,-8.789,31.738
1744258931.023,-46.875,-32.715,-94.727,-50.781,-44.434
1744258931.027,-95.703,-33.691,-179.688,-62.500,-35.645
1744258931.030,-30.273,-24.414,-14.648,-20.996,66.895
1744258931.034,39.551,-22.461,109.375,-2.930,81.543
1744258931.038,-15.625,-27.832,-26.855,-21.973,-25.391
1744258931.042,-97.168,-30.762,-177.734,-46.875,-39.062
1744258931.046,-49.805,-23.926,-60.059,-37.598,-38.086
1744258931.050,28.320,-17.578,114.746,6.836,-41.016
1744258931.054,-7.324,-27.832,26.855,-9.277,-118.164
1744258931.058,-90.332,-43.945,-167.480,-61.523,-223.145
1744258931.062,-77.637,-38.574,-131.836,-51.758,-101.074
1744258931.066,9.277,-30.273,61.523,-11.230,-18.066
1744258931.069,20.020,-31.250,68.848,-18.555,-29.785
1744258931.073,-66.895,-35.645,-125.488,-56.641,-54.199
1744258931.077,-90.332,-40.039,-169.434,-72.754,-97.656
1744258931.081,-14.648,-28.809,11.719,-37.598,-6.348
1744258931.085,14.160,-27.832,87.402,-9.766,52.246
1744258931.089,-45.898,-37.598,-72.754,-39.551,-43.457
1744258931.093,-97.656,-43.945,-182.129,-70.801,-83.496
1744258931.097,-44.922,-35.156,-33.691,-49.805,-50.293
1744258931.101,19.531,-28.809,102.051,-23.926,-64.453
1744258931.105,-30.273,-38.086,-21.484,-51.270,-94.238
1744258931.109,-105.957,-52.246,-189.941,-81.055,-102.539
1744258931.112,-69.336,-41.504,-91.309,-43.457,-47.363
1744258931.116,15.625,-23.438,100.098,2.930,-45.898
1744258931.120,-3.418,-34.180,32.227,-20.508,-140.625
1744258931.124,-86.426,-44.434,-159.180,-60.059,-66.406
1744258931.128,-77.637,-38.086,-132.812,-45.898,-8.301
1744258931.132,11.719,-27.832,62.988,-11.230,-1.465
1744258931.136,28.320,-26.855,86.426,-13.672,19.043
1744258931.140,-51.270,-39.551,-92.285,-55.664,-70.312
1744258931.144,-83.984,-47.363,-156.250,-64.453,-95.215
1744258931.148,-20.020,-40.039,5.859,-24.414,-94.238
1744258931.152,31.738,-32.715,105.957,1.465,-73.730
1744258931.155,-23.926,-37.598,-52.246,-29.297,-59.570
1744258931.159,-83.496,-38.086,-184.082,-63.965,-59.570
1744258931.163,-32.227,-20.996,-32.227,-29.785,-2.441
1744258931.167,37.598,-8.789,127.441,11.230,-1.953
1744258931.171,-3.906,-25.879,3.418,-20.508,-26.367
1744258931.175,-83.984,-46.875,-177.246,-54.688,-100.586
1744258931.179,-54.688,-41.016,-99.121,-35.645,-136.719
1744258931.183,31.250,-20.996,89.844,-5.859,-43.457
1744258931.187,25.879,-14.160,60.547,-5.371,-38.574
1744258931.191,-53.711,-32.715,-138.672,-41.504,-52.246
1744258931.194,-71.777,-41.504,-150.879,-43.457,-15.137
1744258931.198,-6.348,-27.344,41.992,-5.859,-9.277
1744258931.202,26.367,-20.996,87.891,-0.977,-35.156
1744258931.206,-42.480,-35.156,-97.656,-43.457,-40.039
1744258931.210,-98.145,-48.340,-183.105,-56.152,4.883
1744258931.214,-26.855,-33.203,-9.766,-25.391,29.297
1744258931.218,38.574,-17.090,108.887,-1.465,-18.066
1744258931.222,-20.508,-32.715,-39.062,-30.273,-167.480
1744258931.226,-84.961,-39.062,-181.152,-62.500,-161.621
1744258931.230,-43.457,-28.320,-59.570,-41.016,-83.008
1744258931.234,22.461,-19.531,111.816,2.441,-41.504
1744258931.237,-11.719,-24.902,37.109,-9.277,-72.754
1744258931.241,-99.609,-44.434,-152.832,-65.430,-91.797
1744258931.245,-78.613,-41.016,-109.863,-52.246,-26.367
1744258931.249,12.695,-21.973,77.148,-5.371,2.930
1744258931.253,20.996,-18.555,62.500,-15.625,-34.668
1744258931.257,-61.035,-32.715,-123.535,-54.688,-69.824
1744258931.261,-86.426,-41.504,-160.156,-55.664,-45.898
1744258931.265,0.977,-25.391,20.020,-19.531,-56.152
1744258931.269,32.227,-23.438,81.543,-6.836,-68.359
1744258931.273,-41.992,-37.598,-93.750,-50.781,-66.406
1744258931.277,-92.285,-39.062,-186.035,-67.383,-83.984
1744258931.280,-28.320,-26.855,-12.695,-19.531,-67.871
1744258931.284,41.992,-12.207,120.117,2.441,-10.254
1744258931.288,-20.996,-28.809,-34.668,-30.273,-71.289
1744258931.292,-96.680,-38.574,-187.500,-55.176,-160.156
1744258931.296,-52.246,-32.715,-76.172,-43.457,-79.590
1744258931.300,24.902,-25.879,83.008,-13.672,31.738
1744258931.304,6.836,-21.484,8.789,-20.020,20.996
1744258931.308,-78.125,-32.227,-164.062,-52.734,-79.102
1744258931.312,-75.684,-24.902,-123.047,-45.410,-114.258
1744258931.316,11.230,-10.742,60.547,-11.719,-65.430
1744258931.319,20.020,-18.066,58.594,-17.578,-52.246
1744258931.323,-65.430,-32.227,-133.301,-53.711,-24.902
1744258931.327,-88.379,-33.203,-170.898,-57.617,35.645
1744258931.331,-10.254,-20.508,21.484,-22.949,157.227
1744258931.335,28.320,-20.508,89.355,-0.488,96.191
1744258931.339,-43.457,-35.645,-86.914,-41.504,-2.441
1744258931.343,-98.633,-38.086,-207.031,-69.824,-9.766
1744258931.347,-34.668,-27.344,-67.871,-41.016,-62.500
1744258931.351,32.715,-9.766,95.215,-20.996,0.488
1744258931.355,-14.648,-20.508,-9.277,-36.621,34.180
1744258931.359,-92.285,-44.434,-188.965,-64.453,5.859
1744258931.362,-57.129,-29.297,-108.887,-33.691,70.312
1744258931.366,23.926,-5.859,78.613,1.465,122.070
1744258931.370,10.254,-11.719,32.227,-21.973,50.781
1744258931.374,-70.312,-29.785,-147.461,-61.035,-104.492
1744258931.378,-70.312,-23.438,-126.465,-63.477,-43.945
1744258931.382,13.184,-11.719,45.410,-25.879,41.504
1744258931.386,18.066,-21.484,57.617,-22.949,-38.574
1744258931.390,-67.383,-41.016,-127.930,-67.383,-99.121
1744258931.394,-95.215,-43.945,-203.125,-71.289,-54.688
1744258931.398,-20.996,-25.879,-26.367,-34.180,40.039
1744258931.402,34.180,-10.742,88.867,-7.812,11.719
1744258931.405,-22.461,-24.902,-60.547,-33.203,-70.801
1744258931.409,-89.355,-41.992,-200.684,-73.242,-20.020
1744258931.413,-33.203,-22.949,-60.547,-48.340,69.824
1744258931.417,40.039,-4.395,100.586,-18.066,50.781
1744258931.421,-8.789,-20.508,-10.254,-46.387,-41.504
1744258931.425,-90.332,-35.156,-182.617,-69.824,-56.641
1744258931.429,-65.430,-34.180,-120.117,-55.176,-0.488
1744258931.433,8.789,-29.785,60.059,-28.809,-32.715
1744258931.437,5.859,-28.320,32.715,-26.367,-86.426
1744258931.441,-64.941,-40.039,-156.250,-67.871,-50.781
1744258931.444,-66.895,-35.645,-146.484,-61.523,-13.672
1744258931.448,8.301,-22.949,47.363,-14.648,-0.488
1744258931.452,29.297,-27.344,87.402,-5.371,-13.184
1744258931.456,-39.551,-36.621,-88.867,-44.434,-7.324
1744258931.460,-88.867,-38.574,-184.570,-59.570,32.227
1744258931.464,-25.879,-32.227,-25.391,-25.391,32.715
1744258931.468,44.434,-20.020,111.328,-1.953,18.555
1744258931.472,-13.184,-31.738,-32.227,-29.785,26.367
1744258931.476,-88.867,-41.016,-189.941,-67.383,-3.906
1744258931.480,-41.016,-30.273,-75.195,-39.062,10.254
1744258931.484,31.250,-29.785,85.938,-0.488,4.395
1744258931.487,-0.488,-34.180,6.348,-27.344,-62.988
1744258931.491,-75.684,-39.551,-168.457,-64.941,-20.996
1744258931.495,-63.477,-36.621,-111.816,-45.898,-14.648
1744258931.499,22.461,-20.020,77.637,-11.230,-44.434
1744258931.503,30.762,-22.949,62.012,-20.996,5.859
1744258931.507,-62.988,-38.086,-127.930,-59.570,-46.387
1744258931.511,-90.820,-32.227,-156.738,-57.129,-47.363
1744258931.515,-8.789,-16.113,28.320,-8.301,69.336
1744258931.519,27.832,-12.695,104.980,-3.906,60.059
1744258931.523,-39.551,-33.203,-70.312,-37.109,-52.246
1744258931.527,-93.262,-41.504,-191.895,-57.129,-111.328
1744258931.530,-35.156,-24.414,-37.598,-31.738,-69.824
1744258931.534,33.691,-10.742,122.559,-0.488,-34.668
1744258931.538,-15.137,-20.508,2.441,-21.484,-94.727
1744258931.542,-96.680,-41.016,-179.199,-54.688,-96.680
1744258931.546,-64.453,-36.621,-80.566,-40.039,-41.016
1744258931.550,14.648,-20.020,94.238,-8.301,-36.133
1744258931.554,-1.953,-25.879,21.973,-22.461,-54.199
1744258931.558,-75.684,-33.203,-155.273,-57.129,-62.500
1744258931.562,-76.172,-27.832,-120.605,-57.617,-50.293
1744258931.566,1.465,-22.949,59.082,-20.020,-15.625
1744258931.569,17.090,-30.273,56.641,-9.277,-79.102
1744258931.573,-61.523,-39.062,-128.418,-54.199,-83.496
1744258931.577,-89.355,-34.668,-175.781,-65.918,-71.289
1744258931.581,-5.371,-19.043,8.301,-18.555,11.230
1744258931.585,46.387,-15.625,98.145,-0.977,70.312
1744258931.589,-22.461,-31.738,-61.523,-33.203,-30.273
1744258931.593,-83.496,-45.410,-179.199,-47.363,23.438
1744258931.597,-29.785,-37.109,-45.898,-16.113,25.391
1744258931.601,40.039,-20.996,99.609,11.719,-94.727
1744258931.605,-5.371,-27.344,-9.766,-11.230,-100.098
1744258931.609,-89.844,-39.551,-174.316,-49.316,-62.012
1744258931.612,-63.477,-32.227,-79.590,-35.156,-51.270
1744258931.616,18.066,-28.809,89.844,6.348,-81.543
1744258931.620,5.371,-38.086,28.320,-12.695,-140.137
1744258931.624,-83.984,-47.363,-152.344,-64.941,-120.117
1744258931.628,-92.773,-42.969,-147.461,-56.152,-68.359
1744258931.632,-4.883,-28.320,52.246,-14.648,-127.930
1744258931.636,21.973,-30.762,100.098,-7.812,-93.750
1744258931.640,-50.781,-45.898,-95.703,-42.480,-22.461
1744258931.644,-83.496,-42.969,-179.688,-54.688,32.715
1744258931.648,-10.254,-26.367,-8.301,-20.020,75.195
1744258931.652,47.852,-17.578,113.281,3.418,8.789
1744258931.655,-20.020,-25.391,-30.273,-24.902,-75.684
1744258931.659,-82.520,-33.203,-170.410,-49.805,-11.230
1744258931.663,-37.109,-27.344,-59.082,-24.902,42.969
1744258931.667,34.668,-23.438,90.332,3.418,-4.395
1744258931.671,6.348,-29.297,3.418,-19.531,-114.746
1744258931.675,-76.660,-41.016,-180.664,-54.688,-206.055
1744258931.679,-63.965,-32.227,-115.234,-37.109,-93.262
1744258931.683,20.508,-12.207,83.008,-11.230,-34.180
1744258931.687,20.508,-22.461,58.594,-23.926,-61.035
1744258931.691,-67.383,-49.805,-132.324,-54.688,-26.855
1744258931.695,-82.520,-39.551,-148.438,-52.246,-18.066
1744258931.698,-1.953,-12.695,44.922,-13.672,0.977
1744258931.702,33.691,-5.859,109.375,-12.207,-40.039
1744258931.706,-39.062,-25.879,-72.754,-52.246,-85.938
1744258931.710,-103.027,-42.480,-186.035,-68.359,-80.566
1744258931.714,-32.715,-26.367,-33.203,-28.320,-76.660
1744258931.718,46.875,-14.648,95.215,-1.465,-33.691
1744258931.722,-21.973,-28.809,-39.062,-30.273,-32.227
1744258931.726,-103.516,-45.898,-180.664,-61.523,-45.898
1744258931.730,-53.711,-39.551,-71.289,-31.250,-43.945
1744258931.734,26.855,-23.438,91.797,7.324,-43.945
1744258931.737,-0.488,-27.344,18.555,-21.484,-67.871
1744258931.741,-83.496,-41.016,-163.086,-55.176,-76.172
1744258931.745,-78.125,-38.574,-115.723,-40.039,0.977
1744258931.749,7.812,-20.996,87.402,-14.648,23.926
1744258931.753,14.160,-22.461,78.613,-18.555,-61.035
1744258931.757,-69.336,-39.551,-124.512,-57.129,-111.328
1744258931.761,-92.285,-39.551,-166.504,-57.129,-77.637
1744258931.765,-11.719,-26.855,8.789,-17.578,24.414
1744258931.769,36.621,-20.020,96.191,-3.418,97.656
1744258931.773,-33.691,-28.320,-64.941,-32.715,71.777
1744258931.777,-91.797,-37.598,-190.430,-53.711,23.926
1744258931.780,-30.762,-29.297,-40.039,-17.090,10.742
1744258931.784,33.691,-21.484,103.516,5.371,-29.785
1744258931.788,-10.254,-33.203,-20.508,-24.902,-45.410
1744258931.792,-86.914,-44.922,-177.734,-48.340,-5.859
1744258931.796,-45.410,-27.832,-73.730,-25.391,4.883
1744258931.800,37.598,-12.695,105.957,1.953,73.242
1744258931.804,24.414,-25.391,37.598,-10.254,42.969
1744258931.808,-51.758,-30.273,-161.621,-42.480,-94.727
1744258931.812,-63.965,-26.367,-141.113,-44.922,-59.570
1744258931.816,18.555,-18.066,54.688,-2.930,51.270
1744258931.820,39.551,-7.324,94.238,16.113,-28.809
1744258931.823,-55.176,-27.344,-96.680,-26.367,-100.098
1744258931.827,-93.750,-42.969,-179.688,-44.922,2.441
1744258931.831,-12.207,-24.414,4.883,-0.488,40.527
1744258931.835,38.086,-18.066,109.863,19.531,-59.570
1744258931.839,-25.391,-39.551,-52.734,-24.902,-172.363
1744258931.843,-87.402,-47.363,-176.758,-47.852,-145.020
1744258931.847,-28.809,-29.297,-32.715,-17.578,-64.941
1744258931.851,41.992,-13.672,111.816,12.207,-17.090
1744258931.855,-7.812,-23.438,-5.371,-15.625,-54.688
1744258931.859,-92.285,-43.457,-172.852,-56.152,-138.184
1744258931.862,-64.941,-35.156,-96.191,-33.691,-15.137
1744258931.866,22.461,-17.578,85.938,1.465,87.402
1744258931.870,6.348,-27.344,48.828,-20.020,-3.906
1744258931.874,-81.543,-49.316,-130.371,-56.641,-11.719
1744258931.878,-84.961,-52.734,-136.230,-51.270,15.625
1744258931.882,-1.465,-28.320,39.551,-2.441,34.668
1744258931.886,23.438,-16.602,88.379,8.301,23.438
1744258931.890,-52.734,-37.598,-79.102,-45.898,-74.219
1744258931.894,-98.145,-45.898,-167.969,-62.988,-10.742
1744258931.898,-32.715,-27.832,-8.789,-29.785,40.527
1744258931.902,25.879,-21.484,104.004,-5.371,-53.711
1744258931.905,-30.762,-36.621,-46.875,-38.086,-110.352
1744258931.909,-98.145,-45.898,-194.824,-78.125,-67.383
1744258931.913,-48.828,-30.273,-67.871,-41.992,-1.953
1744258931.917,30.762,-22.949,90.820,-7.812,24.902
1744258931.921,5.859,-33.691,-5.859,-26.367,3.418
1744258931.925,-71.777,-43.457,-179.688,-56.152,-42.480
1744258931.929,-63.477,-35.645,-120.117,-44.922,-56.152
1744258931.933,18.066,-20.020,76.172,-3.418,13.184
1744258931.937,21.973,-21.973,72.754,-4.395,-48.340
1744258931.941,-65.918,-33.203,-117.188,-53.711,-103.516
1744258931.945,-91.797,-43.457,-162.598,-55.664,-49.805
1744258931.948,-9.277,-27.832,21.484,-7.812,-39.062
1744258931.952,29.297,-25.391,93.750,2.441,-49.805
1744258931.956,-46.875,-45.898,-83.008,-36.133,-118.164
1744258931.960,-95.703,-39.551,-182.129,-56.152,-114.258
1744258931.964,-31.738,-21.973,-19.531,-23.926,-89.844
1744258931.968,29.785,-16.602,119.629,6.348,-30.273
1744258931.972,-20.996,-26.855,-19.531,-21.484,37.598
1744258931.976,-97.656,-38.086,-182.617,-62.988,5.859
1744258931.980,-57.617,-29.785,-67.383,-27.832,-33.691
1744258931.984,33.203,-12.695,114.258,10.254,16.113
1744258931.987,10.742,-19.531,46.875,-18.066,38.086
1744258931.991,-79.102,-41.992,-148.438,-59.570,-5.371
1744258931.995,-84.961,-41.992,-130.371,-53.223,-25.391
1744258931.999,4.395,-24.902,67.383,-1.465,0.977
1744258932.003,21.973,-23.438,76.660,0.488,-4.883
1744258932.007,-62.500,-30.273,-107.910,-43.945,-70.801
1744258932.011,-90.332,-28.809,-148.926,-55.176,-65.430
1744258932.015,-12.207,-20.508,28.809,-20.020,-45.898
1744258932.019,31.738,-20.996,113.770,0.000,-107.910
1744258932.023,-33.691,-40.039,-50.781,-33.203,-151.367
1744258932.027,-92.773,-45.410,-173.828,-54.688,-120.605
1744258932.030,-34.668,-22.949,-22.949,-21.973,-102.539
1744258932.034,39.062,-8.789,137.695,4.395,-117.676
1744258932.038,-12.207,-32.715,3.906,-23.926,-99.121
1744258932.042,-84.473,-53.223,-179.688,-50.293,-149.414
1744258932.046,-45.898,-28.320,-80.566,-33.691,-158.203
1744258932.050,35.645,-4.883,102.051,-2.441,-99.609
1744258932.054,14.160,-13.184,44.922,-14.648,-161.133
1744258932.058,-67.383,-28.320,-139.160,-53.223,-166.016
1744258932.062,-72.266,-30.762,-131.836,-51.758,-37.598
1744258932.066,9.766,-17.090,61.523,-10.254,77.637
1744258932.070,35.645,-10.742,103.516,-11.230,74.707
1744258932.073,-42.480,-27.832,-88.379,-48.340,-25.879
1744258932.077,-79.102,-31.738,-164.062,-57.617,-75.684
1744258932.081,-12.695,-17.578,12.695,-39.551,-65.430
1744258932.085,37.598,-19.043,101.074,-23.926,-60.059
1744258932.089,-27.344,-25.879,-59.082,-51.270,-72.754
1744258932.093,-100.098,-38.086,-192.383,-76.660,-73.730
1744258932.097,-56.641,-34.668,-66.895,-46.387,-41.504
1744258932.101,26.367,-15.625,103.516,-6.836,0.000
1744258932.105,-6.836,-23.438,5.371,-34.180,8.301
1744258932.109,-84.961,-38.574,-178.711,-68.848,-17.090
1744258932.112,-58.105,-29.785,-111.816,-46.875,69.336
1744258932.116,21.973,-22.461,76.660,-7.812,115.234
1744258932.120,16.113,-28.320,52.734,-13.672,7.812
1744258932.124,-67.871,-29.785,-124.512,-50.781,-46.875
1744258932.128,-85.938,-27.344,-134.277,-45.898,27.832
1744258932.132,-3.906,-20.020,45.898,-5.371,41.992
1744258932.136,30.273,-25.879,85.449,1.953,16.113
1744258932.140,-47.852,-47.363,-99.121,-35.645,-0.488
1744258932.144,-89.844,-51.758,-183.105,-59.082,3.418
1744258932.148,-12.695,-31.738,-15.625,-24.414,69.336
1744258932.152,35.645,-22.461,108.887,1.953,48.340
1744258932.155,-29.297,-33.203,-26.367,-33.691,-22.461
1744258932.159,-91.797,-47.363,-178.223,-62.500,-31.250
1744258932.163,-40.039,-34.180,-66.406,-32.715,63.477
1744258932.167,41.016,-10.254,109.863,-0.488,56.641
1744258932.171,2.930,-17.578,35.156,-16.113,-0.488
1744258932.175,-77.148,-28.809,-138.184,-42.969,34.668
1744258932.179,-61.035,-32.715,-103.516,-44.434,80.566
1744258932.183,20.996,-23.926,67.871,-16.113,108.398
1744258932.187,22.949,-20.996,62.500,-12.207,11.719
1744258932.191,-63.477,-32.227,-118.652,-52.246,-65.918
1744258932.195,-83.496,-39.062,-145.508,-57.129,-56.152
1744258932.198,0.488,-31.250,30.273,-13.672,-32.715
1744258932.202,56.152,-24.902,103.027,4.883,-58.594
1744258932.206,-32.227,-36.133,-67.871,-46.387,-144.531
1744258932.210,-124.512,-41.992,-186.523,-86.426,-46.875
1744258932.214,-66.406,-27.832,-30.762,-53.711,61.035
1744258932.218,10.254,-16.602,119.629,-20.020,-28.809
1744258932.222,-34.668,-20.996,1.953,-50.293,-61.523
1744258932.226,-121.094,-37.598,-173.340,-91.309,-45.898
1744258932.230,-90.332,-39.551,-97.168,-69.824,-24.902
1744258932.234,-7.324,-26.855,80.566,-30.762,18.555
1744258932.237,-27.832,-26.367,24.902,-44.922,-12.207
1744258932.241,-104.004,-39.551,-157.227,-79.102,-39.062
1744258932.245,-92.773,-41.992,-135.254,-62.500,-73.242
1744258932.249,4.395,-23.438,61.035,-10.254,-39.551
1744258932.253,23.438,-23.926,65.430,-13.184,-82.031
1744258932.257,-63.477,-39.551,-124.023,-56.641,-143.066
1744258932.261,-95.215,-38.574,-167.969,-57.617,-55.176
1744258932.265,-19.531,-20.996,13.672,-12.695,-35.156
1744258932.269,28.809,-17.090,114.746,6.348,-25.391
1744258932.273,-36.133,-35.156,-54.199,-33.203,-44.434
1744258932.277,-105.957,-46.387,-195.801,-55.176,-103.516
1744258932.280,-52.734,-35.645,-57.129,-29.785,-62.500
1744258932.284,24.902,-25.879,98.145,-18.066,35.645
1744258932.288,-8.789,-31.738,-3.906,-40.527,10.254
1744258932.292,-82.031,-47.852,-172.852,-67.871,-118.164
1744258932.296,-58.594,-46.387,-102.539,-44.434,-28.320
1744258932.300,26.855,-27.344,80.078,-0.488,50.781
1744258932.304,17.578,-26.855,42.480,-11.230,-40.527
1744258932.308,-56.641,-30.273,-128.906,-43.945,-84.473
1744258932.312,-69.824,-28.809,-126.465,-37.109,-1.465
1744258932.316,3.418,-20.020,54.688,-4.395,37.109
1744258932.320,30.273,-28.320,83.008,-6.348,-14.648
1744258932.323,-47.363,-46.875,-108.887,-42.969,-101.562
1744258932.327,-87.891,-42.480,-187.012,-58.594,-80.078
1744258932.331,-26.367,-18.066,-19.043,-20.996,126.465
1744258932.335,33.203,-6.836,100.098,6.348,122.070
1744258932.339,-28.809,-24.414,-38.574,-26.855,17.090
1744258932.343,-107.910,-38.574,-180.664,-58.105,37.598
1744258932.347,-53.223,-23.926,-54.199,-26.855,82.031
1744258932.351,27.832,-8.789,114.258,5.371,29.297
1744258932.355,-13.184,-25.879,13.672,-31.738,-1.465
1744258932.359,-93.262,-32.715,-164.062,-67.871,-76.660
1744258932.362,-67.871,-23.926,-89.844,-42.480,-39.062
1744258932.366,16.602,-24.902,86.914,-11.230,41.992
1744258932.370,13.184,-25.391,46.875,-6.348,-17.090
1744258932.374,-68.359,-33.203,-140.625,-42.480,-137.695
1744258932.378,-90.332,-40.039,-159.668,-60.059,-93.750
1744258932.382,-14.648,-22.949,36.133,-20.996,-24.414
1744258932.386,28.809,-14.648,100.586,-4.395,-90.820
1744258932.390,-43.457,-31.250,-87.402,-41.016,-98.145
1744258932.394,-92.285,-38.086,-183.105,-63.477,-106.445
1744258932.398,-24.902,-27.344,-21.973,-30.273,-48.828
1744258932.402,41.504,-18.066,102.539,-2.441,-2.441
1744258932.405,-11.230,-24.414,-17.578,-26.367,-75.195
1744258932.409,-90.332,-39.062,-168.945,-62.500,-68.848
1744258932.413,-48.828,-32.715,-74.219,-38.574,-61.523
1744258932.417,35.156,-20.020,92.773,-6.836,-90.332
1744258932.421,4.883,-30.273,7.812,-23.926,-117.188
1744258932.425,-81.543,-40.527,-169.434,-54.688,-167.969
1744258932.429,-74.707,-35.156,-124.023,-52.734,-73.730
1744258932.433,0.977,-20.508,69.336,-11.719,55.176
1744258932.437,12.695,-27.832,65.430,-13.184,-45.898
1744258932.441,-65.918,-40.039,-131.348,-66.895,-168.945
1744258932.445,-102.539,-41.016,-168.945,-79.590,-128.418
1744258932.448,-20.996,-25.391,22.949,-31.250,-66.406
1744258932.452,30.273,-11.230,116.699,-11.230,-65.918
1744258932.456,-38.086,-23.438,-38.574,-43.457,-97.168
1744258932.460,-104.492,-38.574,-168.457,-65.430,-44.922
1744258932.464,-46.875,-26.855,-32.227,-27.832,-5.371
1744258932.468,26.367,-12.695,120.117,7.812,-64.453
1744258932.472,-17.090,-23.438,5.371,-22.949,-31.250
1744258932.476,-104.492,-34.668,-157.227,-67.871,-56.152
1744258932.480,-83.984,-32.227,-80.566,-60.059,-4.883
1744258932.484,8.789,-15.137,92.773,-20.020,4.883
1744258932.487,-12.207,-16.602,38.086,-36.621,-108.887
1744258932.491,-109.375,-33.203,-153.320,-82.031,-97.168
1744258932.495,-118.164,-27.344,-123.047,-82.031,-88.867
1744258932.499,-39.062,-10.742,72.754,-38.574,-110.352
1744258932.503,-20.020,-8.301,90.332,-49.805,-103.516
1744258932.507,-101.074,-25.879,-105.957,-98.633,-65.918
1744258932.511,-151.855,-36.133,-178.711,-111.816,-10.742
1744258932.515,-88.867,-16.113,2.930,-85.449,-18.066
1744258932.519,-34.668,-6.348,107.422,-68.359,-29.785
1744258932.523,-104.980,-27.832,-51.758,-105.957,-58.105
1744258932.527,-175.293,-37.109,-187.012,-134.277,-69.824
1744258932.530,-123.047,-14.160,-47.363,-109.375,-44.434
1744258932.534,-51.270,-9.277,106.934,-81.543,-26.367
1744258932.538,-77.637,-27.832,1.953,-102.051,-90.332
1744258932.542,-158.203,-33.691,-160.645,-127.930,-62.012
1744258932.546,-127.930,-21.484,-85.938,-102.539,44.922
1744258932.550,-36.133,-6.348,97.168,-56.641,51.270
1744258932.554,-39.062,-15.137,63.965,-53.223,-31.250
1744258932.558,-117.188,-32.715,-138.672,-90.332,-54.688
1744258932.562,-127.930,-38.574,-152.344,-89.355,-8.789
1744258932.566,-33.203,-23.926,42.480,-37.109,42.969
1744258932.570,0.977,-20.996,99.121,-26.855,6.836
1744258932.573,-71.777,-41.992,-79.590,-68.848,-109.375
1744258932.577,-112.793,-50.781,-178.223,-74.219,-31.250
1744258932.581,-38.574,-35.156,-13.184,-29.785,29.297
1744258932.585,26.855,-26.855,117.188,-0.488,33.691
1744258932.589,-21.484,-41.992,-18.555,-19.043,2.441
1744258932.593,-79.590,-41.992,-161.133,-43.945,-67.383
1744258932.597,-22.461,-22.949,-34.668,-4.395,-13.672
1744258932.601,60.059,-20.020,121.094,33.691,29.785
1744258932.605,26.855,-41.992,12.695,-0.977,-60.547
1744258932.609,-61.035,-46.875,-158.691,-42.969,-122.070
1744258932.612,-47.852,-40.527,-107.910,-29.785,-33.691
1744258932.616,44.434,-26.855,74.707,18.555,39.062
1744258932.620,48.340,-23.926,74.219,17.578,26.367
1744258932.624,-41.992,-42.480,-111.816,-16.602,-68.848
1744258932.628,-67.871,-45.898,-142.578,-16.602,-44.434
1744258932.632,8.301,-36.133,37.109,16.602,40.527
1744258932.636,47.363,-34.180,109.375,27.344,-9.277
1744258932.640,-24.902,-39.062,-48.828,-12.207,-83.984
1744258932.644,-74.219,-36.621,-146.973,-36.133,-37.598
1744258932.648,-13.672,-34.668,-11.719,-5.859,56.152
1744258932.652,52.246,-33.691,113.281,23.438,-30.273
1744258932.655,10.254,-27.832,-6.348,0.000,-84.961
1744258932.659,-60.059,-28.809,-167.480,-30.762,7.324
1744258932.663,-23.926,-21.973,-55.664,-6.348,15.137
1744258932.667,55.176,-16.113,123.047,20.996,-11.719
1744258932.671,31.738,-32.227,37.109,0.488,-50.781
1744258932.675,-61.035,-49.316,-159.668,-40.039,-133.301
1744258932.679,-54.199,-38.574,-130.859,-30.273,-99.609
1744258932.683,36.621,-22.949,65.918,11.719,-93.750
1744258932.687,45.410,-27.832,80.566,8.301,-58.594
1744258932.691,-45.898,-39.551,-105.469,-33.691,45.410
1744258932.695,-81.055,-42.480,-160.156,-36.133,-0.488
1744258932.698,-0.977,-32.715,15.137,6.348,-0.488
1744258932.702,51.758,-26.855,104.492,18.555,-26.367
1744258932.706,-20.020,-48.340,-59.082,-16.113,-123.047
1744258932.710,-87.402,-56.641,-183.105,-43.457,-187.988
1744258932.714,-28.809,-29.297,-34.668,-22.461,-88.867
1744258932.718,46.387,-26.367,122.559,19.531,18.555
1744258932.722,-0.977,-37.598,7.812,-2.441,-89.844
1744258932.726,-89.844,-41.504,-165.527,-54.688,-126.465
1744258932.730,-55.176,-39.062,-79.590,-31.250,-47.852
1744258932.734,32.715,-21.484,105.957,12.207,-45.410
1744258932.738,29.785,-27.832,56.152,-7.812,-85.938
1744258932.741,-47.852,-51.270,-145.508,-47.852,-43.945
1744258932.745,-64.453,-43.457,-143.555,-45.898,41.016
1744258932.749,17.578,-25.879,47.363,-8.789,76.660
1744258932.753,37.109,-25.879,86.426,-2.930,62.500
1744258932.757,-43.457,-34.668,-83.984,-40.527,-4.883
1744258932.761,-90.332,-43.457,-165.039,-57.129,7.324
1744258932.765,-23.438,-28.320,-6.836,-24.414,78.613
1744258932.769,40.527,-16.113,98.633,-7.812,74.219
1744258932.773,-19.531,-28.320,-52.734,-28.320,-3.906
1744258932.777,-91.309,-39.062,-186.523,-48.828,-52.734
1744258932.780,-41.016,-30.762,-52.734,-35.156,5.859
1744258932.784,32.715,-15.137,113.281,5.859,52.246
1744258932.788,-14.648,-26.855,12.695,-6.348,15.137
1744258932.792,-100.586,-48.340,-175.293,-43.945,-74.219
1744258932.796,-76.172,-38.574,-115.723,-32.227,-62.500
1744258932.800,17.090,-23.926,80.078,0.488,28.809
1744258932.804,15.625,-34.668,52.246,-15.137,1.465
1744258932.808,-67.383,-47.363,-135.742,-58.594,-79.590
1744258932.812,-78.125,-42.969,-146.484,-44.922,-84.473
1744258932.816,-4.883,-29.785,29.785,-3.418,-52.734
1744258932.820,28.809,-26.367,90.820,-5.371,37.109
1744258932.823,-41.504,-40.527,-73.242,-44.922,2.441
1744258932.827,-99.121,-46.387,-167.480,-63.477,-95.215
1744258932.831,-28.809,-31.738,-0.977,-25.391,-50.293
1744258932.835,26.367,-28.809,119.629,6.836,-24.902
1744258932.839,-40.039,-44.922,-33.691,-25.879,-51.270
1744258932.843,-106.445,-50.781,-182.617,-57.129,-78.613
1744258932.847,-65.918,-41.016,-62.500,-29.297,-15.625
1744258932.851,9.277,-31.250,107.422,2.930,43.457
1744258932.855,-18.066,-35.645,20.996,-20.020,-7.324
1744258932.859,-98.633,-48.828,-160.156,-57.129,-15.625
1744258932.863,-80.078,-49.316,-120.605,-41.016,-13.184
1744258932.866,24.414,-24.902,65.918,9.766,-15.137
1744258932.870,35.645,-19.531,75.684,9.277,5.371
1744258932.874,-62.012,-37.109,-98.633,-45.898,-45.898
1744258932.878,-90.820,-40.527,-132.324,-57.617,-51.758
1744258932.882,-8.789,-33.691,28.809,-12.695,43.457
1744258932.886,37.109,-36.133,95.703,7.324,-24.902
1744258932.890,-34.668,-43.457,-58.105,-23.438,-166.992
1744258932.894,-92.773,-45.898,-179.688,-41.992,-82.031
1744258932.898,-37.109,-36.133,-31.250,-17.578,24.902
1744258932.902,38.574,-21.973,125.977,4.395,25.879
1744258932.905,-1.465,-30.762,7.812,-24.902,10.742
1744258932.909,-96.680,-51.270,-162.598,-62.988,-49.805
1744258932.913,-69.824,-45.898,-77.148,-41.016,24.902
1744258932.917,13.184,-27.832,103.027,-2.441,48.828
1744258932.921,-7.812,-36.621,48.828,-12.695,-12.695
1744258932.925,-89.844,-52.246,-142.090,-48.340,-7.324
1744258932.929,-90.820,-48.340,-123.047,-36.133,-60.059
1744258932.933,-11.230,-36.133,62.988,1.465,-28.320
1744258932.937,0.977,-42.969,72.266,1.953,3.418
1744258932.941,-80.078,-63.477,-112.305,-40.527,-130.371
1744258932.945,-108.398,-52.734,-156.250,-48.340,-86.914
1744258932.948,-29.297,-30.762,26.367,-8.789,-16.113
1744258932.952,27.832,-31.250,109.863,1.465,-81.543
1744258932.956,-37.598,-42.480,-48.828,-28.809,-58.105
1744258932.960,-113.770,-48.828,-180.664,-53.223,-11.719
1744258932.964,-56.152,-30.273,-40.527,-28.320,48.340
1744258932.968,21.973,-16.602,115.723,4.395,26.367
1744258932.972,-15.625,-30.273,4.883,-21.973,-37.598
1744258932.976,-94.727,-48.828,-174.805,-63.477,22.461
1744258932.980,-70.801,-47.852,-113.770,-44.922,15.137
1744258932.984,19.531,-29.785,79.590,-2.930,-67.871
1744258932.988,14.648,-32.227,42.969,-6.348,-93.262
1744258932.991,-71.289,-45.410,-143.066,-49.316,-48.828
1744258932.995,-74.707,-41.016,-132.812,-50.781,-4.395
1744258932.999,5.859,-23.438,55.664,-14.648,-9.277
1744258933.003,28.809,-17.578,101.074,0.000,-34.180
1744258933.007,-43.457,-36.133,-77.148,-32.715,-40.527
1744258933.011,-90.332,-37.598,-159.180,-57.617,-19.043
1744258933.015,-21.484,-16.602,9.277,-19.043,-63.477
1744258933.019,38.086,-13.184,128.906,5.859,-99.121
1744258933.023,-25.879,-27.344,-17.578,-20.996,-117.188
1744258933.027,-100.586,-41.016,-174.805,-52.734,-81.543
1744258933.030,-55.176,-36.133,-66.406,-39.062,71.777
1744258933.034,22.461,-22.949,88.867,-2.930,65.430
1744258933.038,-10.254,-21.973,11.230,-30.273,-33.691
1744258933.042,-92.773,-37.598,-161.133,-76.172,-2.441
1744258933.046,-76.660,-37.598,-107.910,-58.105,31.738
1744258933.050,3.418,-20.020,78.125,-20.020,59.570
1744258933.054,6.348,-25.391,54.199,-29.297,21.484
1744258933.058,-66.406,-39.062,-124.512,-64.453,-41.992
1744258933.062,-89.844,-30.762,-135.742,-61.035,-45.898
1744258933.066,-17.090,-14.160,41.504,-9.277,8.789
1744258933.070,21.973,-18.555,91.309,2.930,66.406
1744258933.073,-45.410,-31.738,-83.496,-49.316,25.879
1744258933.077,-91.797,-32.715,-182.129,-69.824,11.719
1744258933.081,-26.855,-21.484,-19.043,-34.668,-2.930
1744258933.085,43.457,-3.906,115.723,-5.859,-49.805
1744258933.089,-12.207,-19.531,-29.297,-37.109,-121.582
1744258933.093,-92.773,-41.016,-183.105,-59.082,-74.707
1744258933.097,-54.199,-34.180,-80.566,-28.320,20.508
1744258933.101,27.344,-18.066,96.680,7.812,-1.465
1744258933.105,0.977,-23.926,33.203,-1.953,-88.867
1744258933.109,-82.520,-33.691,-137.695,-41.016,-125.000
1744258933.113,-72.266,-29.297,-102.051,-30.273,-86.914
1744258933.116,15.625,-25.391,64.453,9.766,-13.672
1744258933.120,16.602,-27.344,72.266,-4.883,3.418
1744258933.124,-68.359,-39.062,-104.004,-42.969,-49.805
1744258933.128,-92.285,-46.387,-144.043,-51.270,-13.184
1744258933.132,-12.695,-29.297,37.598,-17.578,-4.883
1744258933.136,32.715,-26.367,110.840,-0.977,-39.062
1744258933.140,-40.039,-43.457,-62.500,-31.250,-7.812
1744258933.144,-95.703,-48.828,-171.387,-52.246,-79.102
1744258933.148,-28.809,-44.922,-24.414,-24.414,-70.312
1744258933.152,43.945,-28.809,117.676,9.766,-90.820
1744258933.155,4.883,-33.203,15.137,-14.160,-153.809
1744258933.159,-71.289,-45.898,-153.809,-50.293,-111.328
1744258933.163,-47.852,-42.480,-82.031,-27.344,-78.613
1744258933.167,36.133,-28.809,93.750,-1.953,-37.598
1744258933.171,21.484,-26.855,43.945,-21.973,-71.777
1744258933.175,-72.754,-43.945,-145.508,-59.570,-99.609
1744258933.179,-79.102,-44.922,-125.977,-52.734,-94.727
1744258933.183,7.324,-32.227,69.336,-19.043,-83.496
1744258933.187,26.855,-27.344,92.773,-13.672,-21.973
1744258933.191,-53.711,-38.086,-96.191,-47.363,-33.691
1744258933.195,-95.215,-42.480,-165.039,-65.430,-73.730
1744258933.198,-23.926,-29.297,14.648,-23.926,-34.180
1744258933.202,30.762,-27.344,124.023,-2.441,-52.246
1744258933.206,-25.879,-37.598,-22.949,-26.367,-73.242
1744258933.210,-91.309,-37.598,-160.645,-47.852,-11.230
1744258933.214,-36.621,-27.832,-42.969,-21.484,-28.320
1744258933.218,34.668,-21.973,107.422,12.207,-33.203
1744258933.222,-8.789,-31.738,3.418,-16.113,-56.641
1744258933.226,-79.102,-34.668,-161.133,-49.316,-33.691
1744258933.230,-58.105,-23.438,-83.008,-34.180,5.371
1744258933.234,17.578,-22.949,88.379,-7.812,14.648
1744258933.238,9.766,-33.691,41.992,-18.555,-33.203
1744258933.241,-66.406,-44.922,-146.973,-43.945,-114.258
1744258933.245,-71.777,-37.109,-145.020,-37.598,-50.293
1744258933.249,5.371,-24.902,52.734,-12.207,-28.320
1744258933.253,33.691,-20.996,101.074,-21.484,-58.594
1744258933.257,-33.691,-30.762,-82.520,-57.617,-48.828
1744258933.261,-82.520,-39.551,-177.246,-63.965,-51.270
1744258933.265,-20.020,-20.508,-9.766,-29.297,-24.902
1744258933.269,45.410,-14.160,110.840,-9.277,-55.176
1744258933.273,-16.602,-26.855,-26.367,-39.062,-148.438
1744258933.277,-92.285,-31.738,-172.363,-60.059,-86.914
1744258933.280,-40.527,-34.180,-53.711,-26.855,-32.715
1744258933.284,40.039,-23.438,114.258,6.348,-11.719
1744258933.288,5.859,-22.949,24.414,-15.137,-61.523
1744258933.292,-74.219,-39.551,-151.367,-38.574,-112.793
1744258933.296,-59.570,-30.273,-93.262,-39.551,-34.180
1744258933.300,15.625,-22.461,80.078,-21.973,1.465
1744258933.304,18.555,-29.785,54.688,-13.672,-22.461
1744258933.308,-62.012,-42.969,-125.488,-43.945,-121.094
1744258933.312,-91.797,-46.875,-156.738,-54.688,-132.812
1744258933.316,-8.301,-31.250,23.926,-12.695,41.992
1744258933.320,34.180,-21.973,105.469,6.348,137.207
1744258933.323,-37.109,-29.785,-55.176,-35.645,14.160
1744258933.327,-89.844,-38.574,-179.688,-64.453,12.695
1744258933.331,-31.250,-23.438,-33.203,-26.367,19.043
1744258933.335,40.527,-13.672,112.305,18.555,-15.625
1744258933.339,-14.648,-25.879,-18.555,-6.836,-36.621
1744258933.343,-94.727,-38.086,-175.293,-59.082,-96.191
1744258933.347,-50.781,-28.320,-77.148,-35.645,-56.641
1744258933.351,36.133,-20.508,94.727,15.625,29.297
1744258933.355,10.254,-39.551,27.344,6.836,-40.527
1744258933.359,-76.660,-42.480,-158.691,-48.340,-126.953
1744258933.363,-70.312,-25.391,-130.371,-42.969,-16.602
1744258933.366,19.043,-9.277,57.129,5.371,51.758
1744258933.370,37.598,-7.812,75.684,2.930,38.086
1744258933.374,-47.363,-25.391,-115.723,-36.621,-34.180
1744258933.378,-74.707,-34.668,-174.805,-41.504,-56.152
1744258933.382,10.742,-17.578,19.531,-3.906,91.309
1744258933.386,56.641,-14.160,112.793,3.418,61.523
1744258933.390,-20.020,-31.738,-52.246,-28.320,-68.848
1744258933.394,-77.637,-32.227,-169.434,-41.992,-71.289
1744258933.398,-22.461,-26.367,-43.945,-13.672,-28.809
1744258933.402,44.434,-21.484,96.680,10.742,-8.789
1744258933.405,6.836,-26.855,-9.766,-16.113,-15.625
1744258933.409,-73.730,-37.109,-176.758,-47.852,-83.984
1744258933.413,-46.875,-25.879,-77.148,-24.414,-50.781
1744258933.417,36.133,-17.090,102.539,19.531,24.414
1744258933.421,18.066,-34.180,44.922,-1.465,-17.578
1744258933.425,-66.406,-44.434,-144.043,-50.293,-100.098
1744258933.429,-79.102,-35.645,-137.207,-36.621,-93.262
1744258933.433,0.000,-23.926,66.895,4.395,-39.551
1744258933.437,39.062,-20.508,105.469,5.859,3.418
1744258933.441,-42.969,-32.227,-76.660,-29.297,-19.531
1744258933.445,-94.727,-40.039,-158.203,-41.992,-43.457
1744258933.448,-16.113,-26.367,-3.418,-8.301,-7.324
1744258933.452,47.363,-17.578,110.352,17.090,15.625
1744258933.456,-16.602,-33.203,-42.969,-33.203,-57.617
1744258933.460,-85.449,-41.016,-189.453,-70.312,18.066
1744258933.464,-31.738,-22.949,-60.059,-33.203,71.289
1744258933.468,44.434,-12.695,102.539,-3.418,-27.832
1744258933.472,6.348,-28.320,1.465,-20.508,-32.715
1744258933.476,-76.660,-39.551,-173.828,-58.105,-29.785
1744258933.480,-53.711,-29.297,-105.469,-50.293,14.648
1744258933.484,31.738,-17.090,83.984,-10.742,69.824
1744258933.488,26.855,-25.879,73.242,-20.020,-11.230
1744258933.491,-57.617,-46.387,-126.465,-57.617,-69.824
1744258933.495,-75.195,-41.992,-160.645,-56.152,-18.066
1744258933.499,7.324,-19.043,22.949,-20.996,25.391
1744258933.503,46.875,-18.555,81.055,-3.906,-22.949
1744258933.507,-23.926,-32.715,-80.566,-38.086,-138.184
1744258933.511,-82.520,-38.086,-175.781,-57.129,-72.266
1744258933.515,-22.949,-26.855,-25.879,-17.578,38.574
1744258933.519,42.969,-19.043,98.145,3.906,-6.348
1744258933.523,-13.672,-32.227,-25.879,-21.484,-28.809
1744258933.527,-90.332,-41.992,-170.410,-50.781,-19.043
1744258933.530,-48.340,-29.785,-56.152,-28.320,-9.277
1744258933.534,31.738,-17.578,116.211,12.695,38.086
1744258933.538,1.465,-30.762,26.855,-0.488,-51.270
1744258933.542,-83.496,-43.945,-154.297,-45.898,-116.699
1744258933.546,-65.430,-41.016,-113.281,-39.551,-123.047
1744258933.550,18.066,-26.367,75.195,0.000,-155.273
1744258933.554,15.625,-21.973,71.777,-10.742,-142.090
1744258933.558,-68.848,-32.227,-113.281,-39.062,-113.281
1744258933.562,-93.262,-27.344,-137.207,-41.016,-48.828
1744258933.566,-17.090,-15.625,38.086,-15.625,-38.086
1744258933.570,21.973,-15.137,100.098,0.977,-37.598
1744258933.573,-51.758,-27.344,-61.035,-34.180,-54.199
1744258933.577,-109.375,-40.527,-171.387,-63.477,-70.312
1744258933.581,-46.387,-32.715,-20.020,-32.715,-51.270
1744258933.585,26.367,-20.996,118.164,0.977,-27.344
1744258933.589,-19.043,-33.203,-12.695,-28.809,-73.242
1744258933.593,-92.773,-41.016,-175.781,-73.242,-156.250
1744258933.597,-57.617,-30.762,-88.379,-47.852,-56.152
1744258933.601,23.926,-13.672,99.609,-4.883,-19.043
1744258933.605,2.441,-17.578,45.410,-17.578,-106.445
1744258933.609,-78.613,-31.250,-153.320,-64.941,-196.777
1744258933.613,-77.148,-25.391,-133.301,-62.012,-91.797
1744258933.616,4.883,-16.602,54.199,-19.043,46.387
1744258933.620,28.320,-19.043,75.684,-14.648,1.953
1744258933.624,-58.594,-33.691,-99.121,-48.828,-151.367
1744258933.628,-92.285,-46.387,-156.738,-60.059,-89.355
1744258933.632,-13.184,-28.320,13.672,-23.438,76.172
1744258933.636,23.926,-20.996,103.516,-3.906,32.227
1744258933.640,-47.852,-41.992,-54.688,-40.527,-78.125
1744258933.644,-110.840,-50.781,-187.012,-52.734,-127.930
1744258933.648,-59.082,-45.410,-56.152,-27.832,-50.293
1744258933.652,16.602,-29.297,107.910,-7.812,-34.180
1744258933.656,-17.090,-25.391,4.395,-22.949,-77.637
1744258933.659,-102.539,-39.062,-175.781,-61.523,-68.359
1744258933.663,-83.496,-33.691,-101.562,-44.434,-25.879
1744258933.667,8.789,-17.578,89.844,-5.371,-47.363
1744258933.671,0.000,-23.438,59.082,-22.949,-128.906
1744258933.675,-83.008,-40.039,-135.254,-71.289,-125.000
1744258933.679,-90.332,-46.875,-149.902,-64.453,-46.387
1744258933.683,-6.836,-33.203,47.363,-20.996,4.395
1744258933.687,23.438,-31.250,80.078,-17.090,-34.668
1744258933.691,-61.523,-45.410,-102.539,-56.641,-69.824
1744258933.695,-105.469,-40.527,-162.109,-72.754,-18.066
1744258933.698,-31.250,-40.527,-6.348,-29.785,37.109
1744258933.702,23.926,-30.762,104.980,-4.395,44.434
1744258933.706,-34.668,-32.715,-36.133,-50.293,-53.223
1744258933.710,-104.980,-38.574,-186.035,-77.148,-97.168
1744258933.714,-59.082,-20.020,-64.941,-46.875,-5.371
1744258933.718,19.043,-17.578,109.863,-15.137,23.926
1744258933.722,-3.418,-22.949,31.250,-32.715,35.645
1744258933.726,-94.238,-32.715,-160.156,-71.289,36.621
1744258933.730,-91.797,-40.527,-123.535,-61.523,-15.137
1744258933.734,-1.465,-27.832,66.895,-22.461,-80.566
1744258933.738,-2.441,-25.391,55.176,-28.320,-106.934
1744258933.741,-85.938,-39.062,-124.512,-66.895,-58.105
1744258933.745,-93.262,-38.574,-149.902,-60.547,-73.242
1744258933.749,-12.207,-27.344,18.555,-20.508,-24.902
1744258933.753,22.461,-26.367,87.891,-11.719,-48.828
1744258933.757,-48.340,-42.969,-79.590,-41.992,-178.711
1744258933.761,-104.492,-42.480,-183.105,-63.477,-104.492
1744258933.765,-37.598,-22.461,-20.020,-34.668,-25.879
1744258933.769,34.668,-7.324,120.117,-6.348,-11.230
1744258933.773,-14.160,-22.949,-21.484,-25.879,-2.441
1744258933.777,-92.773,-41.992,-190.430,-57.129,-79.102
1744258933.781,-58.594,-31.250,-83.496,-39.062,-94.727
1744258933.784,21.484,-19.531,91.797,-0.488,-40.039
1744258933.788,-3.906,-22.461,32.227,-21.973,-66.406
1744258933.792,-81.543,-40.039,-155.273,-61.035,-86.426
1744258933.796,-80.078,-43.945,-134.277,-54.688,-49.805
1744258933.800,-0.977,-23.926,66.406,-16.602,56.152
1744258933.804,20.508,-21.973,69.824,-17.090,31.250
1744258933.808,-62.012,-40.039,-128.418,-52.246,-117.188
1744258933.812,-89.844,-37.598,-165.527,-50.293,-115.723
1744258933.816,-7.812,-24.902,22.949,-18.555,-56.641
1744258933.820,41.504,-23.438,103.516,-2.441,20.020
1744258933.823,-30.762,-34.668,-66.406,-27.344,-59.570
1744258933.827,-99.121,-44.434,-178.711,-51.270,-125.977
1744258933.831,-38.574,-29.297,-38.574,-31.250,-4.883
1744258933.835,37.109,-14.648,100.586,-7.812,74.219
1744258933.839,-20.020,-25.879,-9.766,-35.156,-45.898
1744258933.843,-103.027,-41.016,-167.969,-59.570,-104.980
1744258933.847,-63.965,-35.645,-86.914,-35.156,54.199
1744258933.851,20.508,-24.414,92.285,-4.883,54.688
1744258933.855,4.883,-33.691,39.062,-23.926,-73.242
1744258933.859,-77.148,-41.016,-150.391,-66.895,-77.148
1744258933.863,-77.637,-33.203,-130.859,-53.711,-48.828
1744258933.866,5.859,-23.438,57.129,-10.254,-17.090
1744258933.870,26.367,-26.367,79.102,-8.789,-47.363
1744258933.874,-56.152,-42.480,-105.957,-50.781,-74.707
1744258933.878,-101.074,-46.387,-180.176,-64.941,-40.039
1744258933.882,-28.809,-26.855,0.977,-19.531,25.391
1744258933.886,32.227,-18.066,113.281,2.930,55.176
1744258933.890,-25.879,-31.738,-51.758,-34.668,53.711
1744258933.894,-96.191,-38.086,-187.012,-63.965,37.109
1744258933.898,-43.457,-26.855,-62.012,-35.645,52.246
1744258933.902,43.457,-19.531,93.750,-1.953,75.684
1744258933.906,-0.488,-28.809,0.977,-31.738,-30.273
1744258933.909,-88.867,-42.969,-173.828,-65.430,-106.445
1744258933.913,-65.918,-46.387,-122.070,-41.992,-7.812
1744258933.917,26.367,-23.438,63.477,-4.883,27.832
1744258933.921,22.461,-16.602,48.340,-12.207,-10.254
1744258933.925,-72.754,-35.156,-142.578,-49.316,-29.297
1744258933.929,-88.379,-37.109,-162.109,-47.852,-0.488
1744258933.933,-5.371,-20.020,36.621,-6.348,65.430
1744258933.937,22.461,-14.160,88.867,-1.465,53.223
1744258933.941,-53.711,-25.879,-81.055,-37.109,-0.488
1744258933.945,-97.656,-34.180,-157.227,-49.805,-6.348
1744258933.948,-32.715,-23.926,-3.906,-12.207,23.926
1744258933.952,28.320,-15.137,120.605,9.766,8.789
1744258933.956,-23.438,-27.832,-25.391,-27.344,-13.672
1744258933.960,-96.680,-44.922,-184.570,-55.176,-84.961
1744258933.964,-57.129,-39.551,-70.801,-36.621,-72.266
1744258933.968,31.250,-19.531,101.074,-2.930,16.602
1744258933.972,4.883,-21.973,21.484,-18.555,-6.836
1744258933.976,-88.867,-36.621,-150.879,-59.082,-130.371
1744258933.980,-77.637,-28.320,-93.750,-45.898,-60.059
1744258933.984,3.418,-23.926,83.984,-13.672,24.414
1744258933.988,0.000,-37.109,58.105,-23.926,-35.156
1744258933.991,-79.102,-44.922,-127.441,-61.523,-13.184
1744258933.995,-95.215,-37.109,-148.926,-59.570,12.695
1744258933.999,-13.672,-22.949,42.480,-14.648,-28.320
1744258934.003,33.691,-19.531,122.559,1.953,-49.805
1744258934.007,-31.738,-38.574,-57.617,-35.645,-61.035
1744258934.011,-88.379,-56.641,-186.035,-53.223,-119.629
1744258934.015,-21.973,-41.016,-32.227,-12.207,-65.430
1744258934.019,52.246,-18.066,114.746,10.254,-0.977
1744258934.023,1.953,-28.320,-14.648,-21.484,-91.309
1744258934.027,-80.566,-48.340,-181.641,-44.434,-128.418
1744258934.031,-48.340,-37.109,-83.008,-22.949,-110.352
1744258934.034,37.109,-23.926,83.496,-4.883,-47.852
1744258934.038,13.672,-34.668,18.555,-21.484,-51.758
1744258934.042,-68.359,-44.434,-151.855,-51.270,-119.629
1744258934.046,-59.570,-41.016,-116.699,-44.922,-21.973
1744258934.050,21.973,-25.391,74.219,-0.977,76.172
1744258934.054,31.738,-20.020,78.125,7.324,61.523
1744258934.058,-53.223,-40.527,-124.023,-37.109,-57.129
1744258934.062,-81.055,-48.828,-176.270,-47.363,-77.637
1744258934.066,1.465,-28.809,13.184,-10.254,14.160
1744258934.070,44.922,-16.113,110.840,0.488,-32.227
1744258934.073,-25.879,-41.016,-51.758,-38.086,-118.652
1744258934.077,-84.961,-54.688,-186.035,-63.477,-97.656
1744258934.081,-31.738,-33.203,-43.945,-22.949,-10.742
1744258934.085,39.551,-19.043,110.840,2.930,13.184
1744258934.089,1.953,-31.250,-5.859,-36.133,-47.363
1744258934.093,-68.848,-44.922,-156.738,-62.988,-44.434
1744258934.097,-41.016,-29.785,-61.523,-40.039,-6.836
1744258934.101,25.391,-11.230,97.656,-8.301,-10.742
1744258934.105,18.066,-22.949,40.039,-20.996,-67.383
1744258934.109,-59.082,-39.062,-147.461,-62.500,-139.648
1744258934.113,-71.777,-31.738,-140.625,-58.105,-71.777
1744258934.116,8.789,-16.113,47.363,-15.137,-24.414
1744258934.120,34.180,-17.090,85.938,-3.418,-26.367
1744258934.124,-39.062,-39.062,-101.074,-39.062,-45.410
1744258934.128,-77.148,-49.316,-181.641,-49.805,-8.301
1744258934.132,-5.859,-26.855,-4.395,-4.883,37.109
1744258934.136,50.293,-10.742,116.211,11.719,4.395
1744258934.140,-7.324,-22.461,-27.344,-24.414,-70.801
1744258934.144,-76.172,-31.738,-174.805,-43.457,-86.914
1744258934.148,-23.438,-18.066,-60.547,-10.742,6.836
1744258934.152,52.734,-10.254,103.516,22.461,13.184
1744258934.156,7.324,-23.926,3.906,-12.695,-80.566
1744258934.159,-80.078,-34.668,-173.828,-68.359,-86.426
1744258934.163,-58.594,-26.855,-106.934,-45.410,-11.230
1744258934.167,21.484,-18.555,73.242,-11.230,41.016
1744258934.171,16.602,-30.273,41.504,-23.438,-21.484
1744258934.175,-65.430,-43.457,-148.926,-56.641,-84.961
1744258934.179,-80.566,-35.156,-164.062,-66.406,-5.371
1744258934.183,-7.812,-17.090,20.020,-32.227,51.270
1744258934.187,15.137,-13.672,84.961,-26.855,-13.672
1744258934.191,-52.246,-25.879,-75.684,-78.125,-114.258
1744258934.195,-100.098,-37.598,-183.594,-95.703,-148.438
1744258934.198,-36.621,-26.367,-36.621,-54.199,-10.742
1744258934.202,28.809,-20.508,97.656,-28.320,-39.062
1744258934.206,-20.020,-37.598,-39.062,-58.105,-165.527
1744258934.210,-88.379,-46.875,-187.988,-86.914,-145.996
1744258934.214,-51.758,-33.691,-73.730,-51.758,-28.320
1744258934.218,29.785,-19.043,103.516,-5.859,10.254
1744258934.222,8.301,-25.879,34.180,-14.648,-65.918
1744258934.226,-76.660,-37.598,-156.250,-45.898,-94.727
1744258934.230,-60.059,-30.762,-117.188,-36.621,-67.871
1744258934.234,26.855,-24.902,81.543,1.953,-47.852
1744258934.238,28.809,-28.809,81.055,2.930,2.930
1744258934.241,-58.105,-42.969,-120.117,-47.852,14.648
1744258934.245,-89.844,-46.387,-166.016,-57.129,-35.156
1744258934.249,-7.812,-21.484,23.438,-11.230,15.625
1744258934.253,37.109,-12.207,106.445,0.488,30.273
1744258934.257,-35.156,-22.461,-53.711,-37.598,21.484
1744258934.261,-93.750,-30.762,-167.480,-63.477,28.809
1744258934.265,-38.086,-30.273,-39.062,-39.551,50.781
1744258934.269,30.273,-19.531,104.492,-4.395,35.645
1744258934.273,-20.020,-23.438,-13.672,-33.203,-40.527
1744258934.277,-98.145,-38.086,-181.641,-76.172,-128.906
1744258934.281,-55.664,-25.879,-76.172,-53.711,-34.180
1744258934.284,30.762,-14.648,105.957,-16.113,49.316
1744258934.288,4.883,-27.344,35.645,-38.574,-43.945
1744258934.292,-81.055,-42.480,-155.273,-79.590,-89.844
1744258934.296,-73.242,-37.109,-134.766,-71.777,-41.016
1744258934.300,5.859,-16.602,57.617,-35.156,7.812
1744258934.304,17.090,-20.020,75.684,-34.180,-68.848
1744258934.308,-58.594,-36.133,-107.910,-74.219,-59.082
1744258934.312,-93.750,-37.109,-167.969,-78.613,-51.758
1744258934.316,-21.484,-27.832,10.254,-30.273,-51.758
1744258934.320,37.598,-21.973,111.816,-4.883,21.973
1744258934.323,-22.949,-35.156,-39.062,-37.598,13.184
1744258934.327,-96.680,-44.922,-156.738,-44.922,-12.695
1744258934.331,-53.223,-36.133,-23.926,-6.836,-10.254
1744258934.335,16.602,-31.250,115.234,16.602,-70.312
1744258934.339,-18.066,-41.992,14.648,-1.465,-168.945
1744258934.343,-91.797,-63.477,-152.344,-29.297,-145.020
1744258934.347,-62.500,-51.270,-78.125,-14.648,-0.488
1744258934.351,21.973,-22.949,108.398,20.508,42.969
1744258934.355,13.184,-28.809,64.453,16.602,-30.762
1744258934.359,-71.777,-41.992,-127.930,-25.391,-89.844
1744258934.363,-90.332,-45.898,-134.766,-24.414,4.883
1744258934.366,-10.742,-32.227,55.176,3.906,50.781
1744258934.370,11.719,-29.297,106.934,-1.465,-21.484
1744258934.374,-66.406,-44.434,-62.500,-41.504,-47.363
1744258934.378,-100.586,-47.852,-155.273,-62.988,-49.805
1744258934.382,-32.227,-40.527,-12.207,-31.250,-75.195
1744258934.386,27.832,-36.133,109.863,-12.207,-95.215
1744258934.390,-22.461,-44.434,-20.996,-39.551,-54.688
1744258934.394,-90.820,-50.293,-168.945,-64.453,-4.395
1744258934.398,-49.805,-43.945,-47.852,-32.715,-16.602
1744258934.402,22.949,-35.645,118.164,11.230,-0.488
1744258934.406,-9.277,-43.945,18.555,-13.184,-19.531
1744258934.409,-83.008,-55.664,-155.762,-48.340,-32.227
1744258934.413,-67.871,-50.781,-98.145,-25.391,15.625
1744258934.417,13.184,-33.203,90.820,4.395,3.418
1744258934.421,21.484,-26.855,86.426,-6.348,-20.508
1744258934.425,-59.082,-41.016,-93.750,-37.109,-24.902
1744258934.429,-74.707,-50.293,-139.160,-47.852,63.965
1744258934.433,-2.930,-40.039,22.949,-15.137,98.633
1744258934.437,32.715,-31.738,93.262,14.648,16.113
1744258934.441,-31.250,-44.434,-75.684,-22.949,9.766
1744258934.445,-92.285,-51.270,-164.551,-48.340,-11.719
1744258934.449,-33.203,-45.410,-11.719,-11.230,-55.664
1744258934.452,34.180,-41.504,108.398,15.625,-115.234
1744258934.456,-17.578,-41.504,-7.324,-20.020,-120.117
1744258934.460,-92.773,-50.781,-163.086,-53.223,-67.871
1744258934.464,-59.570,-48.828,-72.266,-26.367,-53.711
1744258934.468,12.207,-29.785,109.863,4.883,-27.832
1744258934.472,-12.207,-29.297,54.199,-4.883,-70.312
1744258934.476,-91.797,-50.293,-137.207,-47.363,-133.301
1744258934.480,-91.797,-53.711,-126.465,-47.363,-143.066
1744258934.484,-16.113,-37.598,58.594,0.000,-121.582
1744258934.488,2.441,-39.062,65.430,2.930,-98.145
1744258934.491,-79.590,-50.293,-119.141,-23.926,-63.965
1744258934.495,-117.188,-44.922,-163.086,-38.086,-46.387
1744258934.499,-37.109,-37.598,7.812,-24.414,-22.461
1744258934.503,15.625,-30.273,99.121,-0.977,32.715
1744258934.507,-49.805,-35.156,-64.941,-36.133,-53.223
1744258934.511,-105.469,-46.387,-173.340,-53.711,-91.797
1744258934.515,-47.363,-31.738,-13.672,-16.113,-3.906
1744258934.519,16.113,-28.320,99.121,2.930,54.199
1744258934.523,-27.832,-43.457,-20.996,-31.738,45.898
1744258934.527,-98.633,-51.270,-179.688,-82.031,-58.594
1744258934.531,-53.223,-35.156,-100.098,-62.988,-80.566
1744258934.534,35.156,-17.090,72.266,-20.508,-6.348
1744258934.538,4.883,-27.832,32.715,-37.109,-43.457
1744258934.542,-85.449,-51.270,-140.625,-79.102,-127.930
1744258934.546,-89.355,-46.875,-142.090,-68.359,-89.844
1744258934.550,-6.348,-22.949,41.504,-16.113,-18.066
1744258934.554,22.461,-18.555,74.707,-12.207,-49.316
1744258934.558,-52.246,-29.785,-99.609,-52.246,-62.012
1744258934.562,-93.750,-35.156,-166.992,-59.082,-15.137
1744258934.566,-33.203,-26.367,0.488,-20.020,-4.395
1744258934.570,23.438,-24.414,97.168,4.883,-97.168
1744258934.574,-31.738,-34.668,-53.223,-20.020,-137.695
1744258934.577,-105.469,-40.527,-177.246,-43.457,-43.457
1744258934.581,-60.547,-32.227,-54.688,-8.789,56.152
1744258934.585,17.090,-18.066,99.121,22.949,66.406
1744258934.589,-13.184,-20.020,14.648,-12.207,-13.184
1744258934.593,-88.379,-35.156,-161.133,-63.477,-70.312
1744258934.597,-65.430,-35.645,-105.469,-64.453,-22.461
1744258934.601,14.160,-24.902,73.242,-21.484,-29.785
1744258934.605,6.836,-19.531,49.316,-19.043,-111.328
1744258934.609,-64.453,-27.832,-116.211,-46.387,-120.117
1744258934.613,-84.473,-33.691,-125.977,-41.504,-25.879
1744258934.616,-15.137,-24.414,30.273,-9.277,-4.883
1744258934.620,11.719,-20.508,72.754,-14.160,-70.312
1744258934.624,-62.988,-33.691,-87.402,-45.410,-84.473
1744258934.628,-102.051,-38.086,-161.133,-52.734,-43.457
1744258934.632,-31.738,-26.367,-6.348,-31.250,98.145
1744258934.636,22.949,-19.531,104.980,-7.324,70.312
1744258934.640,-39.062,-25.879,-24.902,-33.203,-79.102
1744258934.644,-100.098,-33.691,-173.828,-58.594,-79.102
1744258934.648,-56.152,-25.879,-65.918,-30.762,-61.035
1744258934.652,6.836,-16.602,99.609,-5.371,-33.203
1744258934.656,-21.484,-21.484,29.785,-33.691,-31.250
1744258934.659,-89.355,-24.414,-130.859,-70.312,-46.387
1744258934.663,-80.566,-24.414,-98.145,-53.223,-65.430
1744258934.667,-9.277,-29.297,68.848,-25.879,-57.617
1744258934.671,-9.766,-30.273,61.035,-35.156,-29.785
1744258934.675,-83.008,-34.668,-113.770,-67.871,-62.988
1744258934.679,-105.469,-34.180,-146.973,-75.195,-41.504
1744258934.683,-42.480,-24.902,20.996,-38.086,-5.371
1744258934.687,-0.977,-20.508,98.633,-20.020,-25.391
1744258934.691,-59.082,-32.715,-64.941,-56.152,-28.320
1744258934.695,-111.816,-36.621,-172.852,-75.684,-25.391
1744258934.699,-46.387,-20.996,-26.367,-38.574,-20.020
1744258934.702,19.043,-14.160,110.352,-11.230,-67.871
1744258934.706,-27.832,-28.809,-10.742,-38.086,-88.379
1744258934.710,-93.262,-44.434,-184.570,-59.082,-81.055
1744258934.714,-66.406,-38.086,-92.773,-34.180,12.695
1744258934.718,11.719,-25.879,79.590,0.000,25.879
1744258934.722,2.441,-27.832,20.020,-8.789,-30.762
1744258934.726,-73.242,-38.574,-142.578,-51.270,-128.906
1744258934.730,-68.359,-40.039,-117.676,-48.828,-122.559
1744258934.734,14.648,-29.297,50.293,-4.395,-35.156
1744258934.738,32.715,-30.273,66.406,4.395,-31.738
1744258934.741,-50.293,-39.062,-104.004,-27.344,-68.359
1744258934.745,-86.426,-40.039,-149.902,-41.016,-83.496
1744258934.749,-13.672,-26.367,30.273,-7.324,-5.859
1744258934.753,25.879,-24.902,113.770,9.277,53.223
1744258934.757,-41.016,-48.828,-52.246,-27.344,-42.480
1744258934.761,-100.098,-50.293,-173.828,-52.734,-91.309
1744258934.765,-53.223,-32.715,-47.363,-31.250,25.879
1744258934.769,14.160,-26.367,88.379,-12.695,63.477
1744258934.773,-20.996,-34.668,-14.648,-31.738,3.418
1744258934.777,-99.121,-44.434,-166.992,-64.941,-9.277
1744258934.781,-80.078,-39.551,-93.262,-46.875,-2.930
1744258934.784,7.812,-24.414,73.242,-7.324,-14.648
1744258934.788,-1.953,-26.855,35.645,-15.625,-46.875
1744258934.792,-87.891,-45.410,-140.625,-55.176,-62.012
1744258934.796,-99.609,-38.574,-133.789,-58.105,-6.348
1744258934.800,-22.949,-17.578,43.457,-23.926,33.203
1744258934.804,11.719,-17.578,71.289,-21.973,7.812
1744258934.808,-71.289,-38.574,-103.516,-62.500,-72.266
1744258934.812,-122.070,-46.387,-184.082,-76.172,-85.938
1744258934.816,-35.645,-19.043,-7.324,-32.227,-10.254
1744258934.820,28.320,-12.207,121.094,-9.277,-30.273
1744258934.824,-36.621,-38.086,-36.133,-43.945,-102.051
1744258934.827,-94.238,-46.875,-194.824,-64.453,-86.914
1744258934.831,-37.598,-29.785,-67.383,-33.691,-42.480
1744258934.835,23.926,-16.602,104.004,-8.301,0.488
1744258934.839,-18.066,-28.320,6.836,-27.832,-49.805
1744258934.843,-98.633,-43.945,-158.691,-65.918,-109.863
1744258934.847,-81.055,-42.969,-97.656,-57.617,-34.668
1744258934.851,1.465,-30.273,73.242,-7.812,-1.465
1744258934.855,0.000,-30.273,51.758,-6.348,-34.180
1744258934.859,-71.777,-42.480,-136.719,-50.781,-106.934
1744258934.863,-87.891,-37.109,-158.691,-51.270,-104.980
1744258934.866,-21.484,-25.391,30.762,-6.348,14.648
1744258934.870,17.090,-20.508,93.262,5.859,-98.633
1744258934.874,-54.199,-32.227,-77.148,-35.645,-157.715
1744258934.878,-105.469,-37.598,-166.992,-59.082,-9.766
1744258934.882,-40.527,-33.691,-14.648,-28.320,57.617
1744258934.886,22.461,-29.785,107.910,-8.789,18.066
1744258934.890,-29.785,-28.809,-20.508,-37.598,-76.660
1744258934.894,-101.074,-37.109,-170.898,-69.824,-117.676
1744258934.898,-54.688,-33.691,-66.406,-46.875,-101.562
1744258934.902,25.391,-24.414,103.516,-9.766,-13.184
1744258934.906,-3.906,-38.086,22.949,-33.691,27.832
1744258934.909,-85.938,-49.316,-159.180,-73.242,-18.555
1744258934.913,-80.566,-34.180,-111.328,-62.500,-35.645
1744258934.917,0.977,-23.438,71.289,-20.996,-92.773
1744258934.921,30.762,-25.391,65.918,-17.578,-122.070
1744258934.925,-40.527,-37.598,-128.418,-56.641,-57.129
1744258934.929,-88.867,-40.527,-165.527,-66.895,-19.043
1744258934.933,-21.484,-29.297,25.879,-24.902,-11.719
1744258934.937,20.996,-20.996,117.676,3.418,2.930
1744258934.941,-44.922,-27.344,-40.039,-26.855,-41.504
1744258934.945,-100.586,-37.109,-168.457,-62.012,-68.359
1744258934.949,-45.898,-36.621,-36.133,-34.668,-44.922
1744258934.952,24.902,-23.438,103.027,-0.488,-19.043
1744258934.956,-20.020,-27.832,-21.484,-31.250,-56.641
1744258934.960,-96.680,-45.410,-192.383,-75.195,-96.191
1744258934.964,-57.129,-31.250,-93.750,-56.152,-20.020
1744258934.968,32.715,-11.230,95.703,-17.578,43.945
1744258934.972,20.020,-17.090,27.344,-30.762,0.000
1744258934.976,-74.219,-35.645,-169.922,-58.594,7.324
1744258934.980,-85.938,-37.109,-142.578,-46.387,2.441
1744258934.984,0.000,-17.090,69.336,-14.160,8.789
1744258934.988,30.762,-15.625,93.262,-14.648,22.949
1744258934.991,-43.457,-41.016,-117.188,-56.641,2.441
1744258934.995,-84.473,-42.969,-174.316,-61.523,31.250
1744258934.999,-16.602,-26.855,11.230,-19.531,47.852
1744258935.003,20.996,-16.602,109.375,6.348,7.812
1744258935.007,-48.828,-25.879,-43.945,-22.461,-78.613
1744258935.011,-107.422,-41.016,-188.965,-50.781,-132.324
1744258935.015,-43.945,-32.227,-57.129,-27.344,-59.570
1744258935.019,33.691,-23.926,111.328,0.977,-11.230
1744258935.023,-9.766,-28.320,0.000,-19.043,-73.730
1744258935.027,-87.891,-38.574,-187.012,-53.711,-61.523
1744258935.031,-55.664,-32.227,-93.262,-24.902,-19.043
1744258935.034,37.109,-17.090,112.305,15.137,-3.418
1744258935.038,24.414,-25.391,51.270,6.836,-34.180
1744258935.042,-74.219,-41.504,-154.297,-28.320,-86.426
1744258935.046,-84.473,-41.992,-145.020,-36.133,-86.914
1744258935.050,-1.465,-26.367,49.316,0.977,24.414
1744258935.054,31.250,-15.137,107.422,14.648,16.113
1744258935.058,-42.480,-27.832,-68.848,-21.484,-115.723
1744258935.062,-87.891,-38.086,-171.875,-48.340,-76.660
1744258935.066,-18.066,-26.367,-2.441,-11.719,51.270
1744258935.070,40.527,-19.531,133.301,21.973,55.176
1744258935.074,-20.508,-33.691,-16.602,-13.672,-47.363
1744258935.077,-93.750,-42.969,-169.434,-49.805,-93.750
1744258935.081,-48.828,-28.320,-32.715,-29.785,-83.984
1744258935.085,25.391,-24.902,125.977,-7.324,-125.977
1744258935.089,-11.230,-40.039,22.461,-26.855,-91.309
1744258935.093,-93.262,-55.176,-166.992,-56.152,-144.531
1744258935.097,-75.195,-51.758,-115.723,-48.340,-129.883
1744258935.101,6.836,-28.809,97.168,-15.137,-10.742
1744258935.105,10.254,-30.762,83.008,-23.926,-52.246
1744258935.109,-77.637,-52.246,-127.930,-75.195,-83.008
1744258935.113,-94.727,-49.316,-148.438,-72.754,-73.730
1744258935.116,-8.789,-26.367,53.711,-21.973,-43.457
1744258935.120,31.738,-24.902,110.840,-18.066,-41.016
1744258935.124,-46.387,-38.086,-63.965,-55.176,-138.672
1744258935.128,-111.816,-34.180,-154.297,-65.918,-99.609
1744258935.132,-43.945,-19.043,-2.930,-28.320,37.109
1744258935.136,27.344,-8.789,122.070,-0.488,46.875
1744258935.140,-27.344,-29.785,-10.742,-26.367,-43.457
1744258935.144,-107.422,-50.781,-176.758,-68.848,-144.531
1744258935.148,-68.848,-29.297,-66.895,-46.387,-89.844
1744258935.152,18.066,-7.324,119.629,-1.953,-67.871
1744258935.156,-6.348,-23.438,37.109,-25.879,-109.375
1744258935.159,-91.797,-42.969,-156.738,-72.266,-112.793
1744258935.163,-76.172,-39.551,-117.676,-54.199,-79.590
1744258935.167,26.367,-17.090,83.984,-7.324,23.438
1744258935.171,34.180,-15.625,89.844,-14.160,-39.551
1744258935.175,-61.035,-35.645,-109.863,-55.664,-77.148
1744258935.179,-89.844,-35.156,-160.645,-63.965,-18.066
1744258935.183,-9.277,-19.043,19.531,-17.578,19.531
1744258935.187,36.133,-15.137,108.398,-0.488,-7.324
1744258935.191,-40.527,-35.156,-68.848,-48.828,-44.434
1744258935.195,-103.516,-37.598,-181.641,-76.660,13.184
1744258935.199,-54.199,-22.461,-22.461,-45.898,65.918
1744258935.202,9.766,-18.555,118.164,-14.160,27.344
1744258935.206,-35.645,-24.902,-7.812,-40.039,-11.230
1744258935.210,-112.305,-32.715,-177.246,-79.590,21.484
1744258935.214,-81.055,-25.391,-81.543,-54.688,72.266
1744258935.218,5.859,-12.207,108.398,-11.230,50.781
1744258935.222,-6.348,-26.367,50.293,-25.879,22.949
1744258935.226,-97.168,-43.457,-157.715,-53.711,43.945
1744258935.230,-95.215,-40.039,-149.902,-44.922,62.500
1744258935.234,2.930,-25.879,62.500,-9.277,38.086
1744258935.238,21.484,-23.926,92.773,0.000,-16.602
1744258935.241,-61.523,-36.621,-117.188,-32.715,-99.121
1744258935.245,-95.703,-35.156,-187.500,-46.387,-41.504
1744258935.249,-20.020,-18.555,5.859,-10.742,12.695
1744258935.253,40.527,-20.508,114.258,13.184,-10.742
1744258935.257,-32.715,-33.691,-59.570,-22.949,-20.020
1744258935.261,-105.469,-38.574,-213.867,-60.547,-65.430
1744258935.265,-47.363,-23.438,-49.316,-31.250,-19.531
1744258935.269,31.738,-7.812,151.855,6.348,3.906
1744258935.273,-7.324,-31.250,9.277,-21.484,-78.613
1744258935.277,-103.027,-55.176,-230.469,-64.453,-111.816
1744258935.281,-77.637,-36.133,-130.371,-42.480,-96.680
1744258935.284,13.184,-16.113,138.184,-0.977,-64.941
1744258935.288,-4.395,-26.855,101.074,-21.973,-72.754
1744258935.292,-112.793,-43.457,-172.363,-66.895,-25.391
1744258935.296,-132.324,-36.621,-191.895,-67.383,0.977
1744258935.300,-24.414,-23.438,66.895,-25.391,20.020
1744258935.304,21.484,-26.855,134.766,-8.789,29.297
1744258935.308,-71.289,-41.016,-116.211,-59.082,-8.789
1744258935.312,-124.023,-40.527,-240.234,-95.703,41.016
1744258935.316,-26.855,-24.414,9.277,-42.969,50.293
1744258935.320,47.852,-19.043,178.223,-0.488,-25.391
1744258935.324,-29.785,-37.109,-49.805,-40.039,-79.590
1744258935.327,-110.352,-46.875,-266.602,-74.707,-72.266
1744258935.331,-51.758,-36.133,-90.332,-52.734,12.695
1744258935.335,39.551,-24.414,163.086,-18.555,40.039
1744258935.339,2.930,-30.273,33.691,-41.992,-97.168
1744258935.343,-112.793,-49.316,-241.699,-87.891,-141.113
1744258935.347,-98.145,-46.875,-156.738,-62.988,-64.941
1744258935.351,17.578,-19.531,135.254,0.000,-69.824
1744258935.355,20.508,-17.090,123.047,0.977,-88.379
1744258935.359,-90.820,-40.527,-166.992,-56.641,-63.965
1744258935.363,-111.328,-42.969,-219.727,-58.105,-63.965
1744258935.366,9.277,-27.344,62.500,0.977,-28.809
1744258935.370,62.500,-14.160,175.293,22.461,-33.203
1744258935.374,-31.250,-28.320,-96.191,-28.809,-73.730
1744258935.378,-99.609,-47.852,-275.391,-64.941,-78.613
1744258935.382,-10.742,-27.344,-12.695,-8.789,-21.973
1744258935.386,80.566,-19.531,209.473,35.645,-6.836
1744258935.390,14.648,-36.621,-22.949,-10.254,-112.305
1744258935.394,-82.520,-40.527,-283.203,-55.664,-147.949
1744258935.398,-32.227,-24.414,-99.609,-13.672,-112.305
1744258935.402,75.195,-5.859,186.523,36.621,19.531
1744258935.406,42.969,-10.742,63.965,7.812,-34.180
1744258935.409,-74.219,-32.715,-239.746,-48.828,-194.824
1744258935.413,-69.336,-32.227,-184.082,-38.086,-104.980
1744258935.417,49.316,-8.789,128.418,15.137,16.602
1744258935.421,54.688,-12.695,128.906,3.418,-2.930
1744258935.425,-65.918,-32.227,-184.082,-60.547,-47.363
1744258935.429,-115.723,-45.410,-261.230,-87.402,-39.062
1744258935.433,-20.020,-23.926,57.129,-29.785,-18.066
1744258935.437,41.992,-8.301,196.289,-5.371,10.254
1744258935.441,-54.688,-32.715,-93.262,-62.500,-32.227
1744258935.445,-134.766,-47.852,-284.668,-84.473,-100.098
1744258935.449,-46.875,-28.809,-26.855,-33.203,-104.980
1744258935.452,51.758,-12.207,226.562,13.672,-103.516
1744258935.456,-20.996,-37.598,9.277,-25.879,-163.086
1744258935.460,-128.906,-57.617,-284.180,-80.078,-138.672
1744258935.464,-69.824,-33.691,-119.141,-42.969,-41.504
1744258935.468,44.434,-17.090,182.129,9.766,32.715
1744258935.472,18.066,-29.297,83.984,-14.160,45.410
1744258935.476,-97.168,-45.410,-217.773,-72.754,-137.207
1744258935.480,-102.051,-48.828,-188.477,-62.988,-183.105
1744258935.484,10.742,-29.297,115.234,-3.418,-29.297
1744258935.488,37.598,-25.391,145.508,-1.465,-56.152
1744258935.492,-62.500,-48.340,-162.598,-56.152,-190.918
1744258935.495,-114.258,-50.781,-273.926,-80.078,-81.055
1744258935.499,-10.742,-25.391,38.086,-22.949,75.684
1744258935.503,77.637,-21.973,203.125,20.020,56.641
1744258935.507,-13.672,-41.504,-88.379,-40.039,-4.883
1744258935.511,-115.234,-43.945,-304.688,-91.309,-44.922
1744258935.515,-48.340,-23.438,-62.012,-41.504,-51.270
1744258935.519,52.246,-12.207,193.848,9.766,-7.324
1744258935.523,1.465,-25.391,3.906,-33.203,-18.555
1744258935.527,-112.793,-41.016,-278.320,-94.727,-92.773
1744258935.531,-90.332,-31.250,-138.672,-67.383,-58.105
1744258935.534,26.855,-16.113,179.688,-1.953,1.465
1744258935.538,20.508,-30.762,95.703,-10.742,-17.578
1744258935.542,-98.633,-47.852,-234.375,-71.289,-61.035
1744258935.546,-108.398,-32.715,-214.355,-72.266,-8.789
1744258935.550,15.625,-7.324,115.723,-11.230,51.758
1744258935.554,56.152,-22.949,166.504,1.953,12.207
1744258935.558,-55.176,-52.734,-141.113,-48.828,-106.445
1744258935.562,-125.000,-48.340,-273.926,-70.801,-86.914
1744258935.566,-25.879,-22.949,20.020,-21.484,-17.578
1744258935.570,71.289,-10.742,231.445,21.973,15.625
1744258935.574,-10.742,-30.762,-32.715,-27.832,-20.020
1744258935.577,-125.000,-49.316,-299.805,-79.102,31.738
1744258935.581,-54.688,-24.902,-75.684,-36.133,140.137
1744258935.585,55.176,-4.395,211.426,13.184,68.359
1744258935.589,11.719,-21.973,40.039,-16.113,-8.789
1744258935.593,-94.238,-35.156,-247.070,-63.477,-9.277
1744258935.597,-75.195,-24.902,-135.254,-39.551,80.566
1744258935.601,53.223,-4.395,175.781,19.531,97.168
1744258935.605,55.176,-15.625,122.070,12.207,58.105
1744258935.609,-71.289,-45.410,-208.984,-45.410,-37.598
1744258935.613,-96.191,-48.340,-248.047,-51.758,-54.199
1744258935.616,18.066,-18.555,77.148,17.090,103.516
1744258935.620,74.707,-9.766,200.195,45.410,111.816
1744258935.624,-33.691,-37.109,-102.539,-10.254,9.766
1744258935.628,-116.211,-53.223,-288.574,-54.688,17.090
1744258935.632,-40.039,-33.203,-14.648,-15.625,50.781
1744258935.636,47.363,-14.648,220.215,25.879,6.348
1744258935.640,-19.531,-30.762,-11.230,-18.066,4.883
1744258935.644,-123.047,-43.457,-272.461,-59.082,31.250
1744258935.648,-71.777,-33.203,-88.379,-22.949,112.305
1744258935.652,38.574,-18.555,203.613,22.461,121.094
1744258935.656,17.578,-24.902,70.312,-14.648,9.766
1744258935.659,-93.750,-43.457,-262.207,-82.031,-72.266
1744258935.663,-87.402,-34.668,-176.758,-68.359,-39.551
1744258935.667,37.598,-14.160,148.926,-10.254,3.418
1744258935.671,58.594,-17.090,137.207,-13.672,-76.660
1744258935.675,-55.664,-42.969,-180.664,-71.777,-76.172
1744258935.679,-99.609,-41.504,-259.277,-86.914,-36.133
1744258935.683,1.953,-20.508,61.523,-27.344,18.066
1744258935.687,69.824,-15.137,214.844,0.977,-2.930
1744258935.691,-26.367,-31.738,-77.637,-48.828,-99.121
1744258935.695,-121.094,-47.852,-290.527,-83.984,-36.621
1744258935.699,-39.062,-31.250,-39.551,-42.969,-0.977
1744258935.702,56.641,-16.602,208.984,3.418,-36.133
1744258935.706,-8.301,-40.527,-8.789,-32.715,-117.676
1744258935.710,-116.699,-57.617,-288.086,-83.984,-101.562
1744258935.714,-81.543,-39.062,-115.723,-49.805,-32.715
1744258935.718,34.668,-24.902,180.664,9.277,28.320
1744258935.722,18.066,-33.691,74.219,-8.789,-3.418
1744258935.726,-97.656,-50.781,-242.676,-61.035,-71.289
1744258935.730,-103.516,-40.527,-215.332,-52.246,-6.348
1744258935.734,12.207,-13.184,122.070,5.371,32.715
1744258935.738,45.898,-10.254,165.527,19.043,-45.410
1744258935.742,-67.871,-44.434,-170.898,-38.574,-78.125
1744258935.745,-118.164,-57.129,-281.738,-63.965,-39.551
1744258935.749,-12.695,-32.715,24.414,-2.441,13.672
1744258935.753,62.988,-16.602,206.543,38.574,44.434
1744258935.757,-19.043,-29.297,-48.828,-17.090,-54.199
1744258935.761,-116.211,-48.828,-281.738,-59.570,-159.668
1744258935.765,-46.387,-31.738,-55.664,-13.672,-87.891
1744258935.769,72.754,-6.836,223.633,20.996,14.648
1744258935.773,28.320,-20.508,41.992,-15.137,-107.910
1744258935.777,-94.727,-53.711,-267.090,-68.848,-167.969
1744258935.781,-73.242,-44.434,-129.395,-52.246,-31.250
1744258935.784,45.410,-10.254,204.590,4.395,4.395
1744258935.788,41.504,-26.855,130.371,-11.230,-76.172
1744258935.792,-81.543,-58.105,-205.078,-69.336,-99.121
1744258935.796,-111.816,-56.152,-217.285,-65.918,-43.457
1744258935.800,0.000,-33.691,105.957,-6.348,17.578
1744258935.804,54.199,-27.344,196.289,16.113,-26.367
1744258935.808,-44.922,-50.293,-104.980,-32.227,-130.371
1744258935.812,-121.582,-58.594,-260.254,-60.547,-34.668
1744258935.816,-26.367,-48.340,26.855,-8.301,57.129
1744258935.820,68.848,-32.715,244.629,29.297,-3.418
1744258935.824,-15.625,-39.551,-9.277,-17.090,-93.262
1744258935.827,-115.723,-59.570,-259.277,-61.523,-21.973
1744258935.831,-61.035,-52.246,-43.457,-22.461,40.527
1744258935.835,47.852,-35.156,236.816,27.344,-1.953
1744258935.839,10.254,-46.875,68.359,-8.789,14.160
1744258935.843,-111.816,-72.266,-253.418,-68.848,-52.734
1744258935.847,-98.145,-60.547,-158.203,-48.340,-32.715
1744258935.851,22.461,-29.785,180.176,9.766,33.691
1744258935.855,40.039,-30.762,152.832,6.348,24.414
1744258935.859,-69.336,-51.270,-186.035,-47.852,-31.738
1744258935.863,-112.793,-55.176,-244.629,-59.082,-40.039
1744258935.867,0.000,-35.645,79.590,-0.977,73.242
1744258935.870,68.359,-24.902,214.355,21.484,43.945
1744258935.874,-32.715,-41.016,-82.031,-35.645,-90.332
1744258935.878,-109.863,-49.805,-277.344,-62.500,-88.379
1744258935.882,-14.648,-24.902,-14.648,-5.859,-8.789
1744258935.886,76.172,-10.742,224.609,35.645,9.277
1744258935.890,2.441,-25.391,-0.977,-7.324,-72.266
1744258935.894,-104.492,-43.945,-274.414,-61.523,-101.562
1744258935.898,-56.641,-31.250,-99.121,-28.320,-14.648
1744258935.902,53.223,-9.277,197.266,21.973,-7.324
1744258935.906,22.461,-24.414,64.941,-6.836,-73.730
1744258935.909,-103.027,-48.828,-256.836,-67.383,-114.746
1744258935.913,-94.727,-36.133,-200.195,-47.852,-87.891
1744258935.917,31.738,-16.602,133.301,15.137,-30.273
1744258935.921,49.805,-23.926,159.180,9.277,-105.469
1744258935.925,-59.082,-34.668,-173.340,-52.246,-156.250
1744258935.929,-110.352,-42.969,-279.785,-72.754,-99.609
1744258935.933,-13.184,-27.832,32.715,-19.043,26.367
1744258935.937,60.059,-16.602,195.312,9.277,47.852
1744258935.941,-28.320,-38.574,-84.961,-42.969,-51.270
1744258935.945,-116.699,-45.898,-285.645,-83.984,-32.227
1744258935.949,-38.574,-26.855,-34.668,-26.855,86.426
1744258935.952,63.965,-11.719,212.402,17.578,56.152
1744258935.956,5.371,-32.227,-1.953,-31.738,-39.062
1744258935.960,-105.469,-53.711,-291.016,-77.637,-44.922
1744258935.964,-61.523,-29.785,-121.582,-40.039,3.906
1744258935.968,63.477,-10.742,203.613,19.043,81.055
1744258935.972,42.969,-29.297,106.934,-10.254,-27.344
1744258935.976,-79.590,-43.945,-228.516,-75.684,-76.660
1744258935.980,-90.820,-38.574,-211.914,-67.871,26.855
1744258935.984,20.020,-25.879,114.746,-8.301,108.398
1744258935.988,63.477,-23.926,164.062,7.324,59.082
1744258935.992,-47.363,-39.551,-152.344,-49.805,-30.273
1744258935.995,-125.000,-51.270,-276.855,-78.613,-1.953
1744258935.999,-31.738,-27.832,24.902,-15.137,17.578
1744258936.003,57.617,-9.766,223.633,27.344,-27.344
1744258936.007,-28.809,-28.809,-39.062,-24.414,-118.652
1744258936.011,-133.301,-42.969,-273.438,-73.242,-75.195
1744258936.015,-68.359,-31.250,-41.992,-34.668,45.410
1744258936.019,36.133,-14.160,237.305,15.137,19.043
1744258936.023,-11.230,-30.762,52.246,-15.137,-72.266
1744258936.027,-123.047,-55.176,-261.230,-70.801,-92.285
1744258936.031,-103.027,-49.805,-141.113,-49.805,-82.031
1744258936.034,16.113,-20.508,181.152,7.324,-53.711
1744258936.038,22.949,-10.742,134.766,-14.648,-89.844
1744258936.042,-101.074,-35.156,-200.195,-84.961,-99.121
1744258936.046,-138.184,-42.480,-237.793,-88.379,-33.203
1744258936.050,-20.996,-17.578,95.215,-22.461,29.785
1744258936.054,36.133,-12.695,196.777,-2.930,-40.039
1744258936.058,-69.336,-41.016,-119.141,-58.105,-141.113
1744258936.062,-141.602,-46.875,-277.832,-82.031,-54.688
1744258936.066,-40.527,-18.066,6.836,-30.273,30.762
1744258936.070,54.199,-4.395,223.633,8.301,-27.832
1744258936.074,-20.508,-38.574,-24.902,-32.715,-118.164
1744258936.077,-123.535,-63.477,-298.340,-77.148,-77.148
1744258936.081,-67.383,-39.062,-103.027,-37.598,17.090
1744258936.085,60.059,-19.531,193.848,20.508,5.859
1744258936.089,21.484,-31.738,60.059,-3.418,-38.574
1744258936.093,-98.145,-40.527,-247.070,-57.129,-83.984
1744258936.097,-80.566,-27.344,-165.039,-37.109,20.996
1744258936.101,29.785,-12.207,157.227,25.391,14.648
1744258936.105,41.504,-21.973,146.484,23.926,-152.344
1744258936.109,-83.984,-41.504,-174.805,-43.457,-161.133
1744258936.113,-134.766,-38.086,-238.770,-50.293,-86.914
1744258936.117,-31.250,-31.250,62.500,7.812,15.137
1744258936.120,21.484,-32.715,185.547,14.648,24.414
1744258936.124,-81.055,-54.688,-106.934,-37.598,-87.402
1744258936.128,-160.645,-56.641,-292.969,-66.406,-139.648
1744258936.132,-74.219,-29.785,-10.742,-16.602,-121.582
1744258936.136,35.645,-19.531,229.980,39.062,-107.422
1744258936.140,-24.414,-34.180,-5.859,-2.930,-96.191
1744258936.144,-133.789,-52.734,-297.363,-72.754,-67.871
1744258936.148,-83.496,-41.504,-128.418,-39.551,-35.156
1744258936.152,45.410,-18.555,187.500,22.461,17.578
1744258936.156,39.551,-23.438,91.797,-5.859,34.668
1744258936.159,-72.266,-41.016,-227.539,-66.406,-41.504
1744258936.163,-71.289,-38.574,-202.148,-55.176,-80.078
1744258936.167,46.875,-10.742,125.977,2.441,9.277
1744258936.171,79.102,-7.812,162.598,-0.977,25.879
1744258936.175,-35.645,-30.762,-159.668,-59.570,-7.324
1744258936.179,-94.727,-32.715,-263.184,-72.266,22.949
1744258936.183,0.000,-24.902,44.922,-19.043,50.781
1744258936.187,76.660,-14.648,215.332,10.742,63.965
1744258936.191,-8.789,-27.344,-63.965,-36.133,-19.043
1744258936.195,-110.840,-46.387,-293.945,-80.566,-83.984
1744258936.199,-47.852,-27.832,-53.223,-41.992,8.301
1744258936.202,59.082,-5.859,229.004,8.301,7.812
1744258936.206,3.906,-26.367,32.227,-21.973,-32.715
1744258936.210,-113.281,-54.199,-287.598,-82.031,-74.707
1744258936.214,-76.172,-37.598,-137.207,-57.129,13.672
1744258936.218,42.969,-13.672,177.734,0.977,100.586
1744258936.222,30.762,-25.391,97.656,-10.254,-10.254
1744258936.226,-96.191,-46.875,-210.449,-62.500,-99.121
1744258936.230,-128.418,-43.945,-216.309,-66.895,-72.754
1744258936.234,-16.602,-22.949,111.328,1.953,4.395
1744258936.238,23.926,-20.996,183.105,17.090,43.945
1744258936.242,-79.102,-43.457,-132.812,-48.828,-15.625
1744258936.245,-142.578,-45.410,-261.719,-73.242,-40.039
1744258936.249,-45.898,-20.508,46.387,-14.648,5.371
1744258936.253,48.828,-15.137,248.535,23.926,-12.695
1744258936.257,-25.879,-41.504,-22.949,-20.508,-22.461
1744258936.261,-125.488,-61.035,-294.922,-74.707,17.578
1744258936.265,-61.035,-41.992,-82.520,-42.969,92.773
1744258936.269,56.641,-21.484,204.590,9.277,86.914
1744258936.273,18.066,-32.227,35.645,-19.043,-20.020
1744258936.277,-96.191,-46.387,-269.531,-77.637,-90.820
1744258936.281,-87.402,-37.598,-165.527,-68.848,23.438
1744258936.284,23.926,-28.809,153.809,-16.602,82.520
1744258936.288,35.156,-28.809,119.629,-15.137,-16.602
1744258936.292,-81.055,-32.715,-203.613,-66.406,-14.160
1744258936.296,-118.164,-30.762,-229.492,-79.590,41.016
1744258936.300,-10.742,-16.113,91.797,-23.438,120.605
1744258936.304,49.316,-14.160,187.988,0.977,51.270
1744258936.308,-51.758,-32.227,-110.840,-56.641,-96.680
1744258936.312,-129.395,-48.828,-286.621,-90.332,-54.688
1744258936.316,-46.387,-39.062,-27.344,-34.668,10.742
1744258936.320,45.898,-19.043,214.844,8.301,-68.359
1744258936.324,-24.414,-33.691,-15.137,-36.133,-148.926
1744258936.327,-139.160,-52.246,-300.293,-79.102,-113.281
1744258936.331,-87.891,-43.945,-106.934,-34.180,-7.324
1744258936.335,27.344,-25.879,195.801,13.184,33.203
1744258936.339,-7.812,-25.879,67.871,-13.184,-45.898
1744258936.343,-124.512,-45.410,-241.699,-70.312,-3.906
1744258936.347,-120.605,-37.598,-167.480,-60.059,56.641
1744258936.351,-2.930,-10.742,159.668,2.930,27.344
1744258936.355,17.090,-17.578,148.438,-3.418,20.020
1744258936.359,-95.215,-45.410,-188.477,-64.453,-12.207
1744258936.363,-136.230,-46.875,-266.602,-69.336,-69.824
1744258936.367,-22.461,-17.578,65.430,-10.254,-55.176
1744258936.370,61.523,-1.953,227.539,15.137,-12.207
1744258936.374,-34.668,-32.227,-78.613,-40.039,-85.449
1744258936.378,-126.953,-50.293,-293.457,-73.242,-90.820
1744258936.382,-48.340,-33.691,-35.156,-25.879,-5.859
1744258936.386,62.012,-12.695,225.586,26.855,16.113
1744258936.390,13.184,-20.020,17.578,-1.953,-18.066
1744258936.394,-94.238,-44.434,-268.066,-50.781,-57.129
1744258936.398,-52.734,-38.086,-108.887,-24.414,-33.691
1744258936.402,57.617,-16.113,185.547,30.273,-29.297
1744258936.406,43.457,-22.949,77.637,13.672,-124.023
1744258936.409,-73.730,-43.457,-250.488,-57.617,-150.879
1744258936.413,-85.938,-43.457,-210.938,-58.105,-5.371
1744258936.417,32.715,-16.602,135.742,2.930,94.238
1744258936.421,70.801,-15.625,166.992,4.395,47.363
1744258936.425,-37.109,-39.062,-166.504,-52.734,-51.270
1744258936.429,-98.633,-40.527,-277.832,-72.754,-83.984
1744258936.433,-0.488,-23.438,17.090,-21.484,-39.551
1744258936.437,79.590,-14.648,205.078,13.672,-91.797
1744258936.441,-3.906,-29.297,-53.223,-33.691,-153.809
1744258936.445,-109.375,-46.387,-304.199,-70.312,-46.875
1744258936.449,-45.898,-32.227,-70.312,-24.414,-29.297
1744258936.452,62.012,-13.184,215.332,14.648,-50.293
1744258936.456,12.207,-34.668,20.508,-25.879,-104.004
1744258936.460,-108.887,-57.617,-283.691,-78.613,-131.348
1744258936.464,-82.520,-42.969,-144.531,-52.734,-18.066
1744258936.468,39.062,-15.137,187.012,11.230,0.977
1744258936.472,33.691,-17.578,117.676,-2.930,-100.586
1744258936.476,-85.449,-46.387,-215.820,-65.918,-146.484
1744258936.480,-104.980,-48.828,-225.586,-65.430,-98.633
1744258936.484,13.672,-25.391,111.328,-4.395,8.789
1744258936.488,60.547,-20.996,199.219,13.672,7.812
1744258936.492,-43.457,-45.898,-121.582,-44.434,-45.898
1744258936.495,-107.422,-55.664,-290.039,-67.871,43.457
1744258936.499,-18.066,-23.926,1.953,-11.230,100.586
1744258936.503,64.941,-1.953,227.051,17.090,-26.855
1744258936.507,-0.977,-13.672,-28.809,-29.297,-161.621
1744258936.511,-101.562,-34.180,-302.246,-68.359,-185.547
1744258936.515,-47.852,-30.273,-95.215,-30.762,-94.727
1744258936.519,72.266,-7.812,204.590,23.926,14.160
1744258936.523,41.992,-21.973,52.246,-7.324,-1.465
1744258936.527,-74.219,-42.969,-264.160,-67.383,-49.805
1744258936.531,-58.105,-21.973,-159.180,-39.551,-3.418
1744258936.534,60.059,-3.906,167.480,21.484,68.848
1744258936.538,70.312,-18.555,123.535,10.254,22.949
1744258936.542,-52.734,-38.086,-206.543,-48.340,-87.891
1744258936.546,-90.820,-33.691,-250.488,-58.594,-2.441
1744258936.550,33.203,-16.113,78.613,3.418,80.566
1744258936.554,86.426,-16.602,205.566,26.855,-23.926
1744258936.558,-24.414,-34.668,-96.680,-38.574,-116.211
1744258936.562,-108.887,-41.016,-286.621,-67.383,-85.449
1744258936.566,-26.367,-18.555,-6.348,-12.207,83.984
1744258936.570,73.730,-12.207,236.816,19.043,96.680
1744258936.574,9.277,-32.715,4.395,-34.668,-33.203
1744258936.577,-104.492,-53.223,-269.043,-80.566,-27.344
1744258936.581,-70.801,-45.898,-93.262,-51.270,14.648
1744258936.585,47.852,-16.602,208.984,-2.441,-41.504
1744258936.589,26.367,-22.461,93.750,-26.367,-107.910
1744258936.593,-99.609,-42.969,-233.887,-82.520,-204.590
1744258936.597,-94.238,-34.668,-186.523,-65.430,-199.219
1744258936.601,32.715,-4.395,159.668,2.441,-27.832
1744258936.605,57.129,-3.906,185.547,8.789,19.043
1744258936.609,-65.430,-36.133,-158.691,-59.570,-57.617
1744258936.613,-119.629,-48.340,-272.461,-75.195,-35.645
1744258936.617,-13.184,-32.715,40.527,-13.672,-4.395
1744258936.620,58.105,-17.090,215.332,11.230,-77.148
1744258936.624,-39.551,-31.250,-66.895,-48.340,-154.297
1744258936.628,-132.812,-47.852,-283.691,-95.215,-135.254
1744258936.632,-49.316,-29.297,-43.945,-55.664,30.273
1744258936.636,55.664,-15.625,209.961,-3.418,123.047
1744258936.640,-0.488,-35.156,4.395,-37.109,30.273
1744258936.644,-111.816,-50.293,-297.852,-86.426,-71.289
1744258936.648,-78.613,-34.180,-138.672,-49.316,-70.801
1744258936.652,42.480,-6.836,186.523,5.371,41.016
1744258936.656,32.715,-16.113,100.586,-12.695,-27.832
1744258936.660,-85.938,-38.574,-230.957,-60.059,-178.711
1744258936.663,-92.285,-33.203,-224.609,-52.734,-54.688
1744258936.667,23.926,-14.160,117.676,-5.859,51.758
1744258936.671,54.688,-17.578,191.406,-2.930,0.977
1744258936.675,-61.035,-37.598,-141.602,-59.570,-61.523
1744258936.679,-127.930,-43.945,-288.086,-87.891,-29.297
1744258936.683,-37.109,-25.879,8.789,-31.738,65.918
1744258936.687,48.828,-15.137,209.961,9.277,7.324
1744258936.691,-30.273,-36.621,-62.012,-41.504,-114.258
1744258936.695,-140.137,-44.434,-300.293,-80.078,-100.586
1744258936.699,-70.312,-23.438,-65.430,-29.785,-63.965
1744258936.702,50.781,-9.766,208.496,18.555,70.312
1744258936.706,6.348,-23.438,29.785,-13.672,28.320
1744258936.710,-112.793,-45.410,-282.715,-67.383,-123.535
1744258936.714,-82.520,-41.992,-165.039,-37.109,-24.414
1744258936.718,33.691,-14.648,169.434,24.902,50.293
1744258936.722,31.738,-12.207,128.906,12.207,-92.773
1744258936.726,-78.613,-38.086,-207.031,-45.898,-157.227
1744258936.730,-113.281,-43.945,-245.605,-57.617,-5.859
1744258936.734,-10.742,-34.180,76.172,-0.977,36.133
1744258936.738,48.340,-30.273,186.523,19.043,-44.434
1744258936.742,-45.898,-39.062,-116.699,-45.410,-86.914
1744258936.745,-127.441,-41.504,-288.086,-81.055,-53.223
1744258936.749,-45.898,-25.879,-7.812,-30.273,7.812
1744258936.753,54.199,-20.020,211.426,4.883,29.785
1744258936.757,-16.602,-37.598,-32.715,-38.574,-96.191
1744258936.761,-123.535,-54.688,-294.434,-83.008,-115.234
1744258936.765,-70.312,-32.715,-87.891,-55.664,-17.090
1744258936.769,39.062,-13.184,204.590,-11.230,31.738
1744258936.773,2.441,-34.180,49.805,-41.016,-57.617
1744258936.777,-115.723,-56.641,-268.066,-104.004,-140.137
1744258936.781,-106.445,-48.340,-186.523,-86.914,-63.477
1744258936.785,14.648,-22.461,149.902,-17.090,-24.414
1744258936.788,31.250,-31.250,152.832,-15.137,-27.832
1744258936.792,-86.914,-50.781,-184.570,-72.266,-76.172
1744258936.796,-130.371,-45.410,-272.461,-86.426,-86.914
1744258936.800,-22.949,-28.320,41.992,-37.109,-49.805
1744258936.804,42.969,-21.484,190.430,-10.742,-23.926
1744258936.808,-52.246,-39.551,-94.727,-57.617,-57.129
1744258936.812,-130.371,-39.551,-287.598,-86.426,-99.609
1744258936.816,-52.734,-24.902,-24.414,-31.738,-33.691
1744258936.820,39.551,-22.461,211.426,12.207,-24.902
1744258936.824,-20.508,-32.715,-12.695,-25.391,-167.480
1744258936.827,-126.953,-45.898,-295.410,-72.266,-156.250
1744258936.831,-81.055,-31.250,-120.117,-45.898,-28.809
1744258936.835,32.227,-12.207,190.430,7.812,-12.695
1744258936.839,17.090,-19.043,78.613,-14.160,-125.000
1744258936.843,-93.750,-43.945,-244.629,-77.148,-222.168
1744258936.847,-104.980,-45.898,-202.148,-62.012,-139.648
1744258936.851,5.371,-24.902,132.324,13.672,-7.324
1744258936.855,30.273,-23.926,167.969,13.672,-12.695
1744258936.859,-85.449,-40.039,-146.484,-56.641,-45.898
1744258936.863,-139.160,-41.504,-261.230,-71.289,-56.641
1744258936.867,-33.691,-30.273,30.273,-15.137,-14.160
1744258936.870,48.340,-26.855,216.309,14.160,29.785
1744258936.874,-42.480,-50.781,-65.430,-45.898,-15.137
1744258936.878,-131.836,-54.199,-294.434,-90.820,-46.387
1744258936.882,-45.898,-17.090,-21.484,-33.203,-14.160
1744258936.886,48.828,-2.930,245.117,12.207,7.324
1744258936.890,-7.812,-26.855,34.668,-33.691,-8.301
1744258936.894,-109.863,-51.758,-271.484,-84.473,-83.984
1744258936.898,-79.102,-41.992,-135.254,-58.105,-19.043
1744258936.902,40.039,-16.113,192.871,2.930,18.555
1744258936.906,39.062,-16.113,131.348,-0.488,14.648
1744258936.910,-82.031,-37.109,-195.312,-58.105,19.043
1744258936.913,-107.422,-40.527,-206.543,-57.617,-59.570
1744258936.917,10.254,-18.066,121.582,0.488,7.324
1744258936.921,52.246,-14.648,198.730,9.277,30.762
1744258936.925,-59.570,-41.016,-130.371,-45.898,-51.270
1744258936.929,-125.977,-50.293,-279.297,-69.336,-24.414
1744258936.933,-24.902,-15.137,36.133,-8.301,11.230
1744258936.937,64.941,1.953,247.070,26.367,20.020
1744258936.941,-15.137,-26.367,-23.438,-25.391,-4.395
1744258936.945,-120.117,-45.898,-280.273,-68.359,-54.688
1744258936.949,-62.012,-28.809,-61.523,-24.414,-36.133
1744258936.952,41.504,-10.742,238.770,24.414,20.508
1744258936.956,-5.371,-23.926,76.660,-7.812,-60.059
1744258936.960,-116.211,-52.246,-261.230,-69.336,-136.719
1744258936.964,-98.145,-45.410,-163.086,-50.293,-9.766
1744258936.968,20.996,-15.625,180.664,12.695,121.094
1744258936.972,28.320,-23.926,142.578,7.812,41.016
1744258936.976,-86.914,-42.480,-179.688,-52.246,-102.539
1744258936.980,-120.605,-39.062,-228.027,-67.383,-14.160
1744258936.984,-10.742,-17.090,86.914,-5.859,87.891
1744258936.988,51.270,-16.113,217.773,15.137,2.930
1744258936.992,-48.828,-47.852,-91.797,-47.363,-99.121
1744258936.995,-140.137,-62.500,-287.109,-83.496,-30.273
1744258936.999,-62.012,-35.645,-9.766,-38.574,14.160
1744258937.003,37.109,-12.695,231.445,4.395,6.836
1744258937.007,-21.973,-36.133,3.418,-31.250,-16.602
1744258937.011,-125.977,-61.523,-279.297,-78.125,-129.883
1744258937.015,-80.078,-44.434,-106.934,-44.922,-78.125
1744258937.019,30.273,-28.320,187.988,3.418,-58.105
1744258937.023,2.441,-40.527,72.754,-25.879,-166.992
1744258937.027,-105.469,-49.805,-229.492,-84.473,-161.621
1744258937.031,-99.121,-43.457,-187.500,-67.383,-0.977
1744258937.035,22.949,-16.113,130.371,-7.324,133.301
1744258937.038,50.781,-20.996,158.203,-13.672,69.824
1744258937.042,-62.012,-53.711,-158.203,-75.684,-80.566
1744258937.046,-114.746,-49.805,-250.488,-87.891,2.441
1744258937.050,-18.555,-21.973,49.805,-29.785,171.875
1744258937.054,55.176,-12.695,202.148,0.000,107.422
1744258937.058,-30.762,-37.109,-74.707,-52.246,3.418
1744258937.062,-118.652,-47.852,-285.156,-93.262,-26.367
1744258937.066,-45.898,-25.391,-52.734,-44.434,-8.301
1744258937.070,61.035,-6.836,214.355,13.184,-3.906
1744258937.074,7.324,-30.273,31.738,-15.625,-51.758
1744258937.077,-106.934,-61.523,-267.090,-68.848,-80.566
1744258937.081,-69.336,-39.062,-136.230,-38.086,21.973
1744258937.085,51.270,-10.254,180.176,15.137,115.723
1744258937.089,38.086,-26.367,113.770,1.953,-16.602
1744258937.093,-83.496,-53.711,-204.590,-52.734,-101.074
1744258937.097,-104.980,-55.176,-203.613,-53.223,-22.461
1744258937.101,1.465,-36.133,95.215,2.441,-12.695
1744258937.105,41.992,-35.156,153.320,10.254,-56.152
1744258937.109,-59.082,-51.270,-135.742,-46.875,-91.797
1744258937.113,-121.582,-53.711,-270.508,-70.801,-59.082
1744258937.117,-28.320,-31.738,-4.883,-27.344,22.461
1744258937.120,61.035,-15.137,187.988,0.000,-16.113
1744258937.124,-10.742,-33.691,-43.945,-43.457,-83.984
1744258937.128,-108.887,-48.828,-282.715,-82.031,-71.777
1744258937.132,-49.805,-29.785,-92.773,-41.504,23.438
1744258937.136,58.594,-9.277,175.293,2.930,134.766
1744258937.140,22.949,-23.438,44.922,-19.043,-22.461
1744258937.144,-83.984,-52.734,-248.047,-64.941,-154.785
1744258937.148,-75.195,-40.039,-168.945,-47.852,-50.781
1744258937.152,28.809,-13.672,124.512,-0.977,-56.641
1744258937.156,31.738,-22.461,86.914,-2.441,-68.359
1744258937.160,-80.566,-44.434,-191.406,-44.434,-62.988
1744258937.163,-105.469,-38.574,-217.285,-58.105,-24.414
1744258937.167,-4.883,-18.555,51.758,2.930,16.602
1744258937.171,48.828,-20.508,155.273,23.438,-49.805
1744258937.175,-36.621,-36.621,-104.004,-37.598,-68.848
1744258937.179,-110.352,-40.527,-266.113,-62.500,2.441
1744258937.183,-27.832,-23.438,-20.508,-11.719,33.691
1744258937.187,59.570,-10.254,194.824,27.344,-4.395
1744258937.191,-3.906,-19.043,8.789,-14.648,-119.141
1744258937.195,-99.609,-37.109,-241.699,-58.594,-73.242
1744258937.199,-59.082,-32.227,-101.074,-28.809,28.809
1744258937.202,58.105,-16.113,169.922,25.391,12.695
1744258937.206,38.574,-22.461,70.801,4.883,23.438
1744258937.210,-79.102,-39.062,-219.727,-57.129,-28.320
1744258937.214,-73.730,-31.250,-171.875,-50.781,-116.211
1744258937.218,35.156,-12.207,124.023,-0.977,-41.504
1744258937.222,53.711,-18.066,125.977,-2.441,-39.551
1744258937.226,-53.223,-36.133,-164.062,-49.805,-133.789
1744258937.230,-108.887,-41.504,-238.770,-62.988,-96.191
1744258937.234,-5.859,-21.484,45.410,-6.836,-74.219
1744258937.238,64.941,-9.277,197.754,20.508,-94.727
1744258937.242,-45.410,-36.621,-68.848,-43.457,-85.938
1744258937.245,-135.254,-53.223,-276.855,-86.426,-48.828
1744258937.249,-65.430,-37.109,-50.781,-41.992,-15.625
1744258937.253,20.020,-26.855,181.152,0.488,-32.715
1744258937.257,-29.297,-33.691,16.602,-30.762,-63.965
1744258937.261,-137.695,-51.758,-244.141,-83.984,-63.477
1744258937.265,-111.328,-48.828,-118.652,-66.406,-22.461
1744258937.269,-4.883,-30.273,152.832,-21.484,-27.832
1744258937.273,-22.949,-33.203,64.941,-42.969,-48.828
1744258937.277,-125.977,-56.152,-220.215,-90.332,-38.086
1744258937.281,-132.812,-54.199,-196.289,-86.426,-21.484
1744258937.285,-25.879,-19.043,101.562,-34.180,69.824
1744258937.288,14.648,-20.996,138.672,-17.090,104.980
1744258937.292,-88.379,-48.340,-153.320,-77.148,-7.324
1744258937.296,-136.719,-45.898,-261.230,-101.074,-69.824
1744258937.300,-38.086,-16.602,4.395,-42.969,-12.207
1744258937.304,34.668,-10.742,173.340,-7.812,79.102
1744258937.308,-36.621,-32.227,-51.270,-46.387,36.133
1744258937.312,-123.535,-42.969,-271.973,-85.938,-14.648
1744258937.316,-59.082,-30.273,-80.078,-48.828,-36.133
1744258937.320,44.434,-9.766,169.922,-7.324,-66.895
1744258937.324,4.883,-16.602,28.320,-39.062,-35.156
1744258937.327,-100.098,-39.551,-222.168,-82.031,-21.973
1744258937.331,-76.660,-36.621,-140.625,-62.988,-76.172
1744258937.335,35.645,-18.555,114.746,-6.836,-37.598
1744258937.339,33.691,-19.043,90.820,-2.441,-33.691
1744258937.343,-71.777,-40.527,-180.664,-45.898,-88.379
1744258937.347,-89.844,-46.387,-215.820,-46.875,-18.066
1744258937.351,10.742,-25.391,69.336,3.418,45.898
1744258937.355,50.293,-19.043,161.133,22.949,27.832
1744258937.359,-40.527,-46.875,-102.051,-26.855,-67.871
1744258937.363,-104.492,-49.805,-246.094,-56.641,-91.309
1744258937.367,-21.973,-21.484,-8.789,-12.695,-9.766
1744258937.370,60.059,-11.230,183.105,15.625,-17.578
1744258937.374,-8.301,-34.668,-20.508,-29.785,-186.035
1744258937.378,-111.328,-60.059,-261.719,-74.707,-227.539
1744258937.382,-66.406,-42.969,-92.285,-40.527,-27.344
1744258937.386,38.086,-18.555,184.082,6.836,126.953
1744258937.390,-2.441,-30.273,43.457,-11.719,-26.367
1744258937.394,-114.258,-49.805,-250.977,-61.523,-168.457
1744258937.398,-102.051,-43.945,-174.316,-63.477,-59.082
1744258937.402,15.625,-21.973,130.859,-23.926,11.719
1744258937.406,29.785,-27.344,121.582,-31.250,-9.766
1744258937.410,-84.473,-50.293,-184.082,-85.938,20.020
1744258937.413,-119.629,-47.363,-236.816,-88.379,89.844
1744258937.417,-21.973,-24.414,67.383,-28.320,84.961
1744258937.421,41.992,-13.184,192.871,-11.719,32.715
1744258937.425,-43.457,-32.715,-83.008,-58.594,-35.645
1744258937.429,-124.512,-49.316,-264.648,-83.496,-101.074
1744258937.433,-39.062,-28.320,-23.926,-29.297,-73.730
1744258937.437,41.016,-14.648,164.551,13.184,-101.074
1744258937.441,-21.484,-36.133,-23.438,-23.438,-175.781
1744258937.445,-104.004,-45.410,-208.008,-53.223,-164.062
1744258937.449,-77.148,-30.273,-83.496,-24.414,-93.262
1744258937.453,11.719,-24.902,125.977,21.484,-35.156
1744258937.456,-2.930,-37.109,41.016,7.324,-55.664
1744258937.460,-94.727,-44.922,-174.316,-40.527,-78.613
1744258937.464,-89.355,-36.621,-135.742,-36.133,-47.363
1744258937.468,15.625,-19.043,84.473,8.789,19.043
1744258937.472,40.527,-27.832,102.051,21.484,6.836
1744258937.476,-47.852,-51.758,-123.047,-19.043,-49.316
1744258937.480,-87.402,-46.875,-194.824,-39.551,-34.668
1744258937.484,-5.371,-24.414,18.066,-1.953,-19.531
1744258937.488,48.828,-20.996,127.930,21.973,-20.508
1744258937.492,-20.020,-34.668,-59.570,-14.648,-62.500
1744258937.495,-79.102,-37.109,-207.031,-44.434,-27.344
1744258937.499,-24.414,-20.996,-44.434,-20.508,32.715
1744258937.503,45.410,-11.719,133.789,15.625,-1.465
1744258937.507,8.789,-27.344,-4.883,-8.301,25.391
1744258937.511,-83.984,-41.016,-203.613,-50.781,-4.395
1744258937.515,-61.523,-28.809,-96.680,-39.062,-66.895
1744258937.519,35.645,-9.766,125.000,-1.953,-75.684
1744258937.523,26.367,-19.043,63.477,-0.977,-92.773
1744258937.527,-66.406,-38.086,-172.363,-46.387,-114.258
1744258937.531,-79.102,-36.621,-158.691,-52.246,-68.848
1744258937.535,1.953,-30.273,64.941,-1.953,12.695
1744258937.538,42.969,-30.273,120.605,17.090,-11.230
1744258937.542,-37.109,-37.109,-92.285,-28.809,-34.180
1744258937.546,-97.656,-38.574,-204.102,-63.965,3.906
1744258937.550,-21.484,-29.297,3.418,-24.414,-14.160
1744258937.554,42.969,-22.461,152.344,5.859,-73.242
1744258937.558,-20.508,-35.156,-26.367,-33.203,-99.121
1744258937.562,-103.027,-49.316,-207.520,-62.012,-119.629
1744258937.566,-57.617,-36.133,-51.758,-30.273,-30.273
1744258937.570,35.156,-17.578,170.898,14.648,15.137
1744258937.574,-0.977,-34.668,40.527,-11.719,-104.492
1744258937.577,-105.469,-62.988,-225.098,-58.594,-117.188
1744258937.581,-89.355,-50.293,-148.438,-38.086,-27.344
1744258937.585,24.414,-23.438,139.648,2.930,62.500
1744258937.589,27.832,-30.273,118.652,-10.254,57.617
1744258937.593,-81.543,-50.781,-183.105,-68.848,7.324
1744258937.597,-94.727,-46.875,-214.844,-76.172,69.824
1744258937.601,8.789,-24.902,90.332,-19.531,71.777
1744258937.605,50.781,-21.484,184.570,-7.812,8.789
1744258937.609,-49.316,-44.922,-102.051,-67.383,-17.090
1744258937.613,-116.699,-54.199,-254.883,-89.844,-10.254
1744258937.617,-19.043,-28.320,2.930,-27.344,-4.883
1744258937.620,63.477,-11.230,214.355,12.695,-34.180
1744258937.624,-14.160,-29.297,-8.789,-26.367,-65.430
1744258937.628,-112.793,-45.410,-272.461,-65.430,-104.980
1744258937.632,-60.059,-26.367,-81.543,-27.344,-55.664
1744258937.636,60.059,-5.859,211.426,24.414,59.082
1744258937.640,33.691,-21.484,64.453,-1.953,42.969
1744258937.644,-88.867,-42.969,-239.258,-58.594,-12.207
1744258937.648,-83.008,-36.133,-167.480,-49.316,-3.418
1744258937.652,30.273,-16.113,142.578,11.230,19.043
1744258937.656,53.711,-21.973,160.156,8.301,-33.203
1744258937.660,-58.594,-41.992,-159.180,-54.199,-73.242
1744258937.663,-112.305,-42.969,-259.766,-71.777,-108.398
1744258937.667,-8.301,-19.531,50.781,-17.578,-19.531
1744258937.671,54.199,-18.066,191.406,6.836,-7.324
1744258937.675,-36.133,-36.621,-96.191,-45.898,-118.652
1744258937.679,-119.629,-41.016,-290.527,-81.055,-84.473
1744258937.683,-36.133,-21.973,-35.156,-38.086,-4.883
1744258937.687,61.035,-7.812,205.566,3.906,-3.906
1744258937.691,-7.812,-24.902,-5.859,-34.180,-124.512
1744258937.695,-104.492,-42.969,-274.902,-82.520,-184.082
1744258937.699,-58.105,-31.250,-111.816,-48.340,-91.797
1744258937.703,43.457,-9.277,194.824,3.418,-12.207
1744258937.706,22.461,-12.695,108.398,-17.090,-59.570
1744258937.710,-91.797,-36.621,-226.074,-78.125,-91.797
1744258937.714,-102.051,-38.086,-203.613,-68.848,54.199
1744258937.718,17.090,-12.695,130.859,-3.418,49.316
1744258937.722,45.410,-10.254,167.480,-3.418,-53.711
1744258937.726,-68.359,-32.715,-135.254,-61.523,-57.129
1744258937.730,-116.699,-41.504,-241.699,-79.102,-37.598
1744258937.734,-13.184,-18.066,54.199,-17.090,57.129
1744258937.738,55.664,-10.254,216.797,17.578,63.965
1744258937.742,-31.738,-30.273,-47.363,-34.180,-21.484
1744258937.745,-118.652,-38.086,-258.789,-71.777,-68.848
1744258937.749,-51.270,-26.855,-32.715,-36.621,-21.973
1744258937.753,53.711,-18.555,220.703,0.977,83.496
1744258937.757,3.906,-38.574,17.578,-33.691,-12.695
1744258937.761,-115.234,-43.945,-269.043,-78.125,-67.383
1744258937.765,-83.008,-20.508,-131.348,-48.828,-28.809
1744258937.769,31.738,-5.371,167.969,5.859,-83.008
1744258937.773,16.113,-20.020,103.516,-5.371,-117.188
1744258937.777,-90.332,-37.598,-207.031,-61.523,-171.387
1744258937.781,-92.773,-30.762,-211.914,-63.477,-121.582
1744258937.785,18.555,-17.578,99.609,-8.301,-2.930
1744258937.788,59.082,-13.184,177.734,18.066,22.461
1744258937.792,-42.480,-33.203,-121.582,-42.969,-4.883
1744258937.796,-97.656,-37.109,-245.605,-67.383,-39.551
1744258937.800,1.953,-9.277,41.016,-4.395,29.297
1744258937.804,85.449,-1.953,213.379,15.137,-12.695
1744258937.808,11.230,-22.949,-37.598,-30.762,-110.352
1744258937.812,-99.121,-40.527,-289.551,-69.336,-81.055
1744258937.816,-47.852,-24.902,-99.121,-30.273,-62.500
1744258937.820,62.500,-7.812,191.406,22.949,-46.387
1744258937.824,21.973,-21.973,49.316,0.000,-16.602
1744258937.828,-96.191,-44.434,-257.324,-61.035,-67.871
1744258937.831,-87.402,-36.621,-172.852,-51.758,-23.926
1744258937.835,20.996,-9.766,137.695,11.719,102.539
1744258937.839,26.855,-13.672,129.883,2.930,53.223
1744258937.843,-83.008,-36.621,-172.852,-59.082,-99.609
1744258937.847,-119.629,-38.086,-224.121,-64.453,-78.125
1744258937.851,-21.484,-22.949,69.336,-7.812,50.293
1744258937.855,34.180,-23.438,174.316,7.324,10.742
1744258937.859,-54.688,-43.457,-110.840,-51.758,-146.973
1744258937.863,-125.000,-49.316,-274.902,-83.008,-149.414
1744258937.867,-43.457,-34.668,-16.602,-34.180,-20.020
1744258937.870,52.246,-21.484,194.336,3.418,29.785
1744258937.874,-7.324,-34.668,-28.320,-36.621,-27.344
1744258937.878,-105.957,-51.270,-291.992,-82.520,-60.059
1744258937.882,-59.570,-33.691,-105.957,-46.875,-20.020
1744258937.886,49.805,-9.277,196.289,6.836,63.477
1744258937.890,17.578,-22.461,70.801,-20.508,-9.277
1744258937.894,-96.191,-44.434,-241.211,-72.266,-163.574
1744258937.898,-87.402,-42.480,-186.035,-53.711,-96.191
1744258937.902,27.344,-24.902,131.836,0.000,-10.254
1744258937.906,47.363,-20.020,143.555,0.977,-56.641
1744258937.910,-64.941,-44.434,-180.664,-60.059,-41.992
1744258937.913,-113.281,-44.922,-249.512,-77.637,30.273
1744258937.917,-14.648,-24.414,67.871,-19.043,17.090
1744258937.921,51.270,-19.043,207.031,8.301,-36.133
1744258937.925,-35.645,-35.156,-82.031,-43.945,-99.609
1744258937.929,-125.488,-53.223,-296.387,-82.031,-77.637
1744258937.933,-51.270,-34.668,-35.645,-34.180,-9.766
1744258937.937,47.363,-13.184,226.074,7.812,-19.531
1744258937.941,-8.301,-37.109,5.371,-27.832,-101.074
1744258937.945,-111.816,-64.453,-286.621,-72.266,-157.227
1744258937.949,-74.707,-41.992,-122.559,-40.039,-58.105
1744258937.953,34.668,-15.625,193.359,17.578,4.395
1744258937.956,18.066,-27.832,88.867,-4.883,-37.109
1744258937.960,-93.750,-52.246,-245.117,-60.547,-60.059
1744258937.964,-104.492,-48.340,-209.961,-58.594,-35.156
1744258937.968,8.301,-26.367,118.164,-9.277,15.137
1744258937.972,45.898,-20.508,156.250,-6.348,-20.508
1744258937.976,-70.312,-39.062,-163.574,-55.176,-52.246
1744258937.980,-131.836,-47.363,-271.484,-74.219,54.199
1744258937.984,-31.738,-22.461,36.133,-39.551,147.949
1744258937.988,50.781,-11.230,211.914,-1.465,20.996
1744258937.992,-29.297,-36.133,-71.289,-39.551,-49.805
1744258937.995,-125.488,-49.316,-302.246,-87.891,-37.109
1744258937.999,-57.129,-30.762,-62.988,-47.852,18.066
1744258938.003,52.734,-14.648,214.844,7.812,54.199
1744258938.007,-0.488,-35.156,36.133,-28.320,-66.895
1744258938.011,-112.793,-52.246,-275.879,-91.309,-81.543
1744258938.015,-84.961,-35.156,-149.902,-60.059,-19.531
1744258938.019,21.484,-13.672,174.805,9.766,-15.625
1744258938.023,20.996,-16.113,112.305,-2.930,-112.793
1744258938.027,-97.656,-47.852,-225.098,-67.383,-121.582
1744258938.031,-121.582,-44.434,-225.586,-64.453,-26.367
1744258938.035,-1.465,-14.648,110.840,0.977,26.855
1744258938.038,44.922,-19.531,177.734,13.672,-42.969
1744258938.042,-68.359,-50.781,-139.160,-47.852,-67.383
1744258938.046,-138.672,-60.547,-296.875,-78.125,-12.695
1744258938.050,-41.504,-36.621,-6.836,-28.809,-27.832
1744258938.054,45.898,-23.926,206.543,8.301,-73.242
1744258938.058,-20.508,-41.504,-46.387,-29.785,-137.207
1744258938.062,-116.699,-56.641,-300.293,-73.730,-88.867
1744258938.066,-63.477,-34.180,-99.121,-47.852,77.148
1744258938.070,43.457,-9.277,193.848,2.441,140.625
1744258938.074,-1.465,-27.344,42.480,-28.809,41.992
1744258938.078,-108.887,-47.363,-268.555,-88.867,-60.547
1744258938.081,-85.938,-26.855,-165.527,-68.848,18.066
1744258938.085,36.621,-4.883,157.227,-11.719,2.441
1744258938.089,47.852,-15.137,123.047,-16.113,-116.699
1744258938.093,-73.730,-41.016,-208.496,-73.730,-117.676
1744258938.097,-109.863,-44.434,-253.418,-77.148,-50.293
1744258938.101,0.488,-18.555,89.355,-17.578,-6.836
1744258938.105,68.848,-8.789,211.426,7.324,-28.320
1744258938.109,-28.320,-34.668,-105.957,-48.340,-85.449
1744258938.113,-115.234,-52.246,-300.293,-92.285,-50.781
1744258938.117,-24.902,-34.180,-25.879,-34.668,56.641
1744258938.120,66.895,-10.742,221.680,15.625,24.414
1744258938.124,-10.742,-25.879,-6.348,-25.879,-69.336
1744258938.128,-124.512,-47.852,-287.109,-76.172,-67.383
1744258938.132,-78.125,-41.016,-109.863,-54.199,0.488
1744258938.136,37.109,-25.879,185.547,0.000,29.297
1744258938.140,5.371,-26.367,64.941,-21.973,-91.797
1744258938.144,-113.281,-52.734,-260.254,-80.078,-138.672
1744258938.148,-111.328,-49.316,-207.031,-61.035,41.992
1744258938.152,6.348,-23.438,138.184,-3.906,132.324
1744258938.156,33.691,-32.227,151.367,-8.789,64.453
1744258938.160,-77.148,-53.223,-174.316,-66.895,-30.762
1744258938.163,-126.953,-52.246,-260.254,-84.473,-52.246
1744258938.167,-17.090,-29.297,47.363,-22.949,26.367
1744258938.171,63.965,-17.578,212.402,12.207,-14.648
1744258938.175,-21.484,-38.086,-67.383,-41.992,-174.805
1744258938.179,-120.605,-52.246,-295.898,-78.613,-125.000
1744258938.183,-56.152,-38.086,-52.734,-29.297,3.418
1744258938.187,47.363,-28.320,212.891,21.973,-8.789
1744258938.191,-11.719,-40.039,2.441,-20.020,-138.184
1744258938.195,-122.559,-44.922,-277.344,-80.566,-157.715
1744258938.199,-78.125,-35.156,-121.582,-50.781,10.254
1744258938.203,41.016,-19.043,179.688,12.207,65.430
1744258938.206,20.508,-25.391,93.750,0.000,-69.824
1744258938.210,-98.145,-54.199,-242.188,-59.082,-142.090
1744258938.214,-103.027,-44.922,-210.938,-56.152,-26.367
1744258938.218,20.508,-13.672,143.555,6.836,54.688
1744258938.222,57.129,-19.531,174.805,9.766,75.684
1744258938.226,-60.547,-46.387,-155.273,-57.129,-23.926
1744258938.230,-124.512,-50.293,-281.738,-73.242,-150.391
1744258938.234,-24.414,-27.344,12.207,-26.855,-55.664
1744258938.238,54.688,-10.254,207.031,0.488,-17.578
1744258938.242,-27.344,-26.855,-57.617,-33.203,-71.289
1744258938.245,-121.094,-41.992,-297.852,-72.266,-104.492
1744258938.249,-46.875,-20.508,-62.988,-23.438,-91.309
1744258938.253,62.500,-1.465,217.773,26.855,-15.137
1744258938.257,9.766,-29.297,27.344,-11.719,-68.359
1744258938.261,-105.469,-55.664,-283.203,-69.824,-99.609
1744258938.265,-79.102,-33.203,-157.227,-54.199,13.672
1744258938.269,35.156,-3.418,182.617,13.184,70.312
1744258938.273,31.250,-15.137,125.000,12.695,-21.973
1744258938.277,-89.355,-50.293,-226.074,-55.176,-127.930
1744258938.281,-110.840,-52.734,-241.211,-59.082,-36.621
1744258938.285,4.395,-25.879,78.613,0.488,87.891
1744258938.288,49.805,-16.113,175.293,5.859,51.758
1744258938.292,-52.734,-40.039,-136.230,-50.293,11.719
1744258938.296,-125.977,-50.293,-308.594,-70.801,58.105
1744258938.300,-31.738,-24.414,-16.602,-20.508,68.359
1744258938.304,61.035,-12.695,200.195,17.090,55.176
1744258938.308,-19.043,-30.273,-40.527,-18.066,-52.246
1744258938.312,-119.141,-44.434,-293.457,-69.336,-127.441
1744258938.316,-46.387,-25.879,-80.566,-41.992,-38.086
1744258938.320,61.035,-13.184,201.172,8.301,-4.395
1744258938.324,17.578,-31.738,33.691,-28.809,-72.754
1744258938.328,-90.332,-48.828,-271.973,-79.590,4.395
1744258938.331,-76.172,-34.180,-181.152,-52.246,44.922
1744258938.335,41.992,-8.789,150.391,8.789,28.320
1744258938.339,60.059,-13.184,148.926,8.789,-16.602
1744258938.343,-51.758,-37.109,-178.711,-46.875,-124.023
1744258938.347,-95.215,-49.316,-264.648,-61.523,-12.207
1744258938.351,11.230,-22.949,55.664,-0.977,51.270
1744258938.355,69.824,-16.113,200.195,22.461,-31.738
1744258938.359,-31.250,-41.016,-91.797,-41.016,-51.758
1744258938.363,-107.422,-43.457,-275.391,-74.707,-23.926
1744258938.367,-23.438,-25.391,-21.484,-26.855,0.000
1744258938.370,69.824,-11.230,205.078,14.648,21.973
1744258938.374,8.301,-25.391,-3.906,-22.461,1.465
1744258938.378,-102.539,-43.945,-270.020,-79.102,-89.844
1744258938.382,-64.941,-30.762,-104.492,-50.781,-62.500
1744258938.386,52.734,-12.207,184.082,14.160,-15.625
1744258938.390,39.062,-22.461,89.355,5.859,-96.680
1744258938.394,-69.336,-43.945,-208.984,-47.852,-192.871
1744258938.398,-71.777,-27.344,-181.641,-34.668,-57.129
1744258938.402,37.109,0.977,114.258,22.461,32.715
1744258938.406,69.824,-2.441,164.062,16.602,-99.609
1744258938.410,-30.762,-31.250,-122.070,-37.109,-142.578
1744258938.413,-93.262,-49.316,-251.465,-57.617,-101.074
1744258938.417,-4.395,-32.227,23.438,-10.254,4.883
1744258938.421,72.266,-18.555,195.312,20.020,-11.230
1744258938.425,-10.742,-36.621,-55.664,-32.227,-130.371
1744258938.429,-104.980,-52.734,-281.250,-71.289,-95.703
1744258938.433,-46.387,-37.109,-61.035,-24.902,2.441
1744258938.437,56.641,-12.695,209.473,19.043,37.598
1744258938.441,12.207,-25.391,28.809,-21.973,-23.438
1744258938.445,-101.562,-49.805,-263.672,-76.172,-40.039
1744258938.449,-69.824,-41.016,-131.348,-47.363,13.184
1744258938.453,41.016,-14.648,176.758,9.766,49.316
1744258938.456,31.738,-14.648,114.258,-5.859,-0.488
1744258938.460,-80.566,-41.504,-201.172,-67.383,-29.297
1744258938.464,-95.703,-38.574,-211.914,-62.500,70.801
1744258938.468,15.137,-9.766,109.375,1.953,65.918
1744258938.472,49.316,-9.766,186.523,7.324,18.066
1744258938.476,-58.105,-27.344,-113.281,-54.199,-58.105
1744258938.480,-124.023,-35.156,-260.254,-82.520,-50.781
1744258938.484,-37.109,-25.391,16.113,-32.715,64.941
1744258938.488,51.758,-6.836,213.867,3.906,-57.129
1744258938.492,-15.137,-24.902,-41.016,-41.992,-164.551
1744258938.495,-119.629,-45.898,-278.809,-88.867,-138.184
1744258938.499,-67.383,-22.461,-51.758,-45.410,-57.129
1744258938.503,46.387,-12.207,227.051,5.859,-92.773
1744258938.507,4.395,-42.480,45.898,-34.180,-191.895
1744258938.511,-112.793,-52.734,-259.277,-80.566,-158.691
1744258938.515,-92.285,-39.062,-158.203,-57.617,-73.730
1744258938.519,25.879,-18.555,166.992,-2.441,11.719
1744258938.523,40.039,-21.484,134.766,-11.230,-18.555
1744258938.527,-73.730,-46.387,-196.777,-78.125,-83.496
1744258938.531,-118.652,-49.805,-236.816,-84.473,-26.367
1744258938.535,-10.742,-25.879,91.797,-28.320,50.781
1744258938.538,54.688,-17.090,202.148,-3.906,13.184
1744258938.542,-47.363,-43.945,-110.840,-57.129,-61.523
1744258938.546,-129.395,-57.617,-272.461,-89.844,-80.566
1744258938.550,-39.062,-30.273,15.137,-37.109,2.930
1744258938.554,52.246,-14.648,234.863,7.324,55.176
1744258938.558,-17.090,-41.992,-19.531,-33.691,-2.930
1744258938.562,-125.000,-63.477,-296.875,-81.543,-104.980
1744258938.566,-75.195,-41.504,-104.980,-46.387,-28.320
1744258938.570,45.410,-6.348,207.031,3.906,81.543
1744258938.574,16.113,-28.809,67.383,-35.156,-16.113
1744258938.578,-100.586,-49.805,-248.535,-86.914,-104.980
1744258938.581,-97.168,-37.109,-171.387,-66.406,-19.043
1744258938.585,20.996,-25.391,150.879,-9.277,4.883
1744258938.589,42.969,-29.297,149.414,-2.930,-129.395
1744258938.593,-66.406,-41.992,-177.734,-64.453,-151.367
1744258938.597,-109.863,-36.621,-245.605,-78.613,-109.863
1744258938.601,-10.254,-19.531,66.895,-18.555,-13.184
1744258938.605,54.199,-19.531,203.125,8.789,-76.172
1744258938.609,-38.086,-41.504,-88.379,-45.410,-188.965
1744258938.613,-125.488,-46.387,-287.109,-82.031,-81.055
1744258938.617,-47.363,-23.438,-34.668,-30.762,-3.418
1744258938.621,53.223,-11.230,219.238,18.555,-37.598
1744258938.624,-11.719,-25.879,14.160,-27.344,-43.457
1744258938.628,-119.141,-41.504,-282.715,-83.984,-39.551
1744258938.632,-74.219,-28.320,-121.094,-45.898,12.207
1744258938.636,41.504,-6.348,201.172,15.137,9.766
1744258938.640,27.832,-22.949,109.863,-6.348,-63.965
1744258938.644,-93.750,-48.340,-227.051,-70.312,-107.910
1744258938.648,-104.004,-39.062,-207.520,-75.684,-73.242
1744258938.652,13.672,-19.531,122.559,-16.602,14.648
1744258938.656,42.480,-25.879,144.043,-6.348,32.715
1744258938.660,-64.453,-41.504,-170.410,-60.547,-39.551
1744258938.663,-112.305,-38.574,-257.324,-69.824,-105.469
1744258938.667,-13.672,-26.367,34.180,-15.625,20.020
1744258938.671,59.570,-16.113,205.566,8.789,63.965
1744258938.675,-25.391,-32.227,-71.777,-45.898,-43.945
1744258938.679,-112.305,-46.387,-309.082,-84.961,1.465
1744258938.683,-41.992,-33.691,-64.941,-44.434,123.047
1744258938.687,55.664,-14.160,220.215,0.488,111.328
1744258938.691,13.672,-16.602,40.039,-28.809,1.953
1744258938.695,-101.562,-39.062,-274.902,-77.637,-53.223
1744258938.699,-73.730,-35.645,-145.508,-53.223,-44.434
1744258938.703,44.922,-15.137,180.176,-1.465,23.438
1744258938.706,30.273,-24.414,108.887,-19.043,14.648
1744258938.710,-88.867,-44.922,-221.191,-72.266,-101.074
1744258938.714,-120.605,-41.504,-227.051,-80.566,-82.520
1744258938.718,-7.324,-24.414,107.910,-23.438,12.695
1744258938.722,56.152,-21.484,187.012,3.418,49.805
1744258938.726,-57.617,-44.434,-129.883,-50.781,-20.508
1744258938.730,-138.672,-52.246,-275.391,-78.125,-57.617
1744258938.734,-39.062,-26.367,20.020,-23.926,71.289
1744258938.738,56.641,-14.648,231.934,20.020,41.504
1744258938.742,-20.020,-45.410,-38.086,-25.391,-71.777
1744258938.746,-125.488,-63.477,-305.176,-75.195,-2.441
1744258938.749,-67.871,-28.809,-78.125,-40.039,82.031
1744258938.753,42.969,-8.301,212.891,14.160,46.387
1744258938.757,10.254,-24.902,55.664,-10.742,-56.641
1744258938.761,-113.770,-38.574,-252.930,-71.777,-110.352
1744258938.765,-105.469,-38.574,-175.293,-64.941,-49.805
1744258938.769,19.531,-23.438,143.555,1.465,-8.301
1744258938.773,32.715,-25.391,129.883,0.000,-56.641
1744258938.777,-85.449,-45.898,-189.941,-67.383,-93.750
1744258938.781,-127.930,-43.457,-230.469,-76.660,-66.895
1744258938.785,-15.625,-22.461,90.332,-10.254,-0.977
1744258938.788,50.293,-19.531,199.219,14.160,-51.270
1744258938.792,-47.852,-40.039,-98.633,-41.992,-205.078
1744258938.796,-133.789,-58.105,-284.180,-77.637,-117.188
1744258938.800,-52.734,-37.109,-28.320,-30.762,41.504
1744258938.804,43.945,-19.043,204.590,5.371,-6.348
1744258938.808,-17.090,-37.598,2.930,-34.668,-76.660
1744258938.812,-122.559,-55.664,-266.113,-79.102,-123.047
1744258938.816,-76.172,-46.387,-114.746,-46.387,-84.961
1744258938.820,34.180,-27.344,165.527,1.465,-33.203
1744258938.824,13.672,-29.297,71.289,-24.414,-41.504
1744258938.828,-89.844,-41.992,-208.008,-70.801,-40.039
1744258938.831,-100.098,-35.156,-186.035,-65.918,-17.090
1744258938.835,3.906,-29.297,87.891,-15.137,50.781
1744258938.839,40.039,-33.203,127.930,-0.977,32.227
1744258938.843,-68.359,-43.457,-151.855,-55.176,-122.559
1744258938.847,-132.812,-50.781,-269.531,-79.102,-68.848
1744258938.851,-37.109,-26.855,18.066,-27.344,70.312
1744258938.855,37.109,-12.207,193.848,-0.488,71.289
1744258938.859,-45.898,-41.504,-70.312,-46.875,-1.953
1744258938.863,-132.324,-55.664,-288.086,-80.566,-59.570
1744258938.867,-52.734,-31.738,-56.152,-37.598,28.809
1744258938.871,32.715,-19.043,170.898,0.488,80.566
1744258938.874,-33.203,-31.738,-18.066,-35.156,-47.363
1744258938.878,-127.441,-51.270,-263.672,-81.543,-125.977
1744258938.882,-93.262,-41.992,-133.789,-63.477,-42.480
1744258938.886,24.414,-19.531,154.785,-10.742,-7.812
1744258938.890,19.531,-32.715,70.312,-23.438,-82.031
1744258938.894,-94.727,-50.293,-248.047,-77.148,-162.598
1744258938.898,-110.840,-43.945,-234.375,-71.289,-76.172
1744258938.902,14.160,-22.949,110.840,-10.742,51.270
1744258938.906,56.641,-17.090,174.805,2.441,-20.996
1744258938.910,-67.871,-37.598,-149.902,-63.965,-103.516
1744258938.914,-130.859,-46.387,-279.297,-85.938,-41.992
1744258938.917,-18.555,-21.973,31.250,-21.973,79.102
1744258938.921,55.664,-8.789,226.562,5.371,92.773
1744258938.925,-39.062,-34.668,-50.293,-53.223,-29.297
1744258938.929,-138.184,-54.199,-306.152,-94.727,-67.383
1744258938.933,-73.730,-34.668,-80.078,-45.898,-56.641
1744258938.937,39.062,-14.648,210.938,8.789,-57.617
1744258938.941,-4.395,-29.297,24.902,-26.855,-93.750
1744258938.945,-119.629,-51.758,-279.297,-79.590,-107.422
1744258938.949,-95.703,-50.781,-159.180,-48.340,7.324
1744258938.953,23.926,-24.414,161.133,5.859,105.469
1744258938.957,29.297,-20.508,108.398,-2.441,61.523
1744258938.960,-81.543,-39.062,-221.191,-51.758,-33.203
1744258938.964,-107.422,-45.410,-241.211,-50.293,-8.789
1744258938.968,4.883,-23.926,100.098,13.184,33.203
1744258938.972,58.594,-11.230,205.566,26.855,-35.645
1744258938.976,-47.363,-38.574,-125.000,-41.992,-84.961
1744258938.980,-116.699,-52.246,-300.293,-74.219,-42.969
1744258938.984,-25.879,-30.273,-5.859,-17.090,34.668
1744258938.988,60.547,-12.207,219.727,30.762,108.887
1744258938.992,-10.254,-22.949,-22.949,-5.859,35.645
1744258938.996,-113.770,-38.574,-280.273,-70.312,-50.293
1744258938.999,-59.082,-25.391,-74.219,-42.969,0.488
1744258939.003,50.293,-4.395,206.055,19.043,-8.789
1744258939.007,16.113,-15.137,59.570,-11.719,-53.711
1744258939.011,-101.074,-45.410,-249.512,-78.125,-120.117
1744258939.015,-90.332,-35.645,-162.598,-61.035,-63.965
1744258939.019,27.832,-9.277,166.016,2.930,53.223
1744258939.023,42.480,-20.508,142.578,1.953,-66.406
1744258939.027,-72.754,-40.039,-186.523,-55.664,-176.758
1744258939.031,-118.164,-38.574,-248.535,-71.777,-79.102
1744258939.035,-10.742,-18.555,69.824,-13.184,-12.695
1744258939.039,55.664,-10.254,217.773,12.695,-6.348
1744258939.042,-38.574,-33.691,-88.867,-47.852,-85.938
1744258939.046,-120.117,-46.387,-297.852,-83.008,-93.750
1744258939.050,-37.598,-30.273,-28.809,-36.621,7.812
1744258939.054,52.734,-13.184,220.215,3.418,93.262
1744258939.058,-13.184,-19.043,10.742,-35.156,-31.250
1744258939.062,-114.258,-39.062,-275.879,-85.449,-166.992
1744258939.066,-74.219,-33.203,-115.234,-49.316,-82.031
1744258939.070,39.062,-17.090,192.383,12.695,-41.504
1744258939.074,21.973,-28.320,78.125,-9.766,-117.676
1744258939.078,-94.238,-51.758,-250.000,-71.289,-129.395
1744258939.082,-94.238,-51.270,-210.449,-57.129,-96.680
1744258939.085,18.555,-24.414,124.023,3.906,-11.719
1744258939.089,38.574,-23.438,155.762,1.953,-32.715
1744258939.093,-77.148,-44.922,-175.781,-63.477,-96.191
1744258939.097,-126.953,-43.457,-280.762,-74.219,-17.578
1744258939.101,-14.160,-25.391,38.086,-4.883,29.785
1744258939.105,53.223,-21.973,218.262,23.438,24.414
1744258939.109,-43.945,-39.062,-52.734,-35.156,-43.457
1744258939.113,-139.648,-45.410,-279.297,-83.984,-83.008
1744258939.117,-77.637,-37.598,-51.270,-41.016,18.555
1744258939.121,37.598,-27.832,206.543,11.719,53.711
1744258939.124,-14.160,-36.133,13.184,-23.438,-34.180
1744258939.128,-132.812,-53.223,-285.645,-75.195,-53.223
1744258939.132,-91.309,-40.527,-139.160,-52.246,0.000
1744258939.136,31.738,-20.020,189.453,8.301,-33.203
1744258939.140,21.484,-26.855,108.398,4.883,-152.832
1744258939.144,-96.680,-52.734,-224.609,-51.758,-149.902
1744258939.148,-115.234,-47.852,-229.492,-57.617,-77.637
1744258939.152,0.000,-25.391,94.238,0.000,-50.293
1744258939.156,48.340,-20.020,182.129,14.160,-62.988
1744258939.160,-61.523,-37.109,-125.000,-44.922,-94.238
1744258939.164,-132.324,-46.387,-277.832,-69.824,-51.758
