timestamps,TP9,AF7,AF8,TP10,Right AUX
1743562993.691,-35.156,-30.762,0.000,-28.809,0.000
1743562993.695,-34.180,-25.391,0.000,-30.762,0.000
1743562993.699,-25.391,-30.762,0.000,-33.203,0.000
1743562993.703,-17.090,-31.738,0.000,-26.855,0.000
1743562993.707,-22.949,-28.809,0.000,-28.320,0.000
1743562993.711,-27.344,-28.320,0.000,-25.879,0.000
1743562993.715,-25.879,-21.973,0.000,-29.297,0.000
1743562993.719,-25.391,-20.020,0.000,-29.297,0.000
1743562993.723,-25.391,-22.949,-18.555,-28.809,0.000
1743562993.727,-22.461,-28.320,-25.879,-31.738,0.000
1743562993.731,-20.020,-42.480,-36.133,-39.551,0.000
1743562993.734,-20.020,-41.016,-34.180,-23.438,0.000
1743562993.738,-28.320,-28.320,-23.926,-29.785,0.000
1743562993.742,-28.809,-26.367,-26.367,-50.293,0.000
1743562993.746,-18.066,-28.320,-24.902,-28.809,0.000
1743562993.750,-33.691,-35.156,-26.367,-26.367,0.000
1743562993.754,-47.852,-37.598,-36.133,-34.668,0.000
1743562993.758,-41.016,-32.715,-39.062,-39.062,0.000
1743562993.762,-38.574,-29.297,-36.133,-35.645,0.000
1743562993.766,-34.668,-29.297,-33.691,-27.344,0.000
1743562993.770,-36.621,-33.691,-28.320,-23.438,0.000
1743562993.774,-42.480,-40.527,-25.391,-38.086,0.000
1743562993.777,-39.551,-38.574,-25.391,-40.527,0.000
1743562993.781,-41.016,-34.180,-26.855,-35.156,0.000
1743562993.785,-43.457,-39.062,-30.273,-30.762,0.000
1743562993.789,-30.273,-31.738,-22.949,-23.438,0.000
1743562993.793,-27.832,-25.879,-23.926,-28.320,0.000
1743562993.797,-30.273,-29.297,-29.785,-22.949,0.000
1743562993.801,-32.227,-29.297,-22.949,-22.949,0.000
1743562993.805,-24.902,-32.715,-18.555,-30.762,0.000
1743562993.809,-22.949,-38.574,-26.855,-33.691,0.000
1743562993.812,-31.738,-42.480,-39.062,-30.762,0.000
1743562993.817,-29.297,-38.086,-44.434,-40.039,0.000
1743562993.820,-23.438,-31.250,-34.180,-30.762,0.000
1743562993.824,-19.531,-33.691,-23.438,-24.414,0.000
1743562993.828,-19.043,-31.738,-28.320,-36.133,0.000
1743562993.832,-29.785,-26.367,-26.367,-33.203,0.000
1743562993.836,-29.297,-29.297,-24.414,-20.996,0.000
1743562993.840,-24.414,-35.156,-26.855,-27.344,0.000
1743562993.844,-34.668,-37.109,-26.855,-38.086,0.000
1743562993.848,-36.133,-34.668,-32.715,-36.621,0.000
1743562993.852,-30.762,-35.156,-38.574,-44.922,0.000
1743562993.855,-33.203,-33.203,-35.156,-30.762,0.000
1743562993.859,-38.086,-27.832,-25.391,-23.438,0.000
1743562993.863,-29.785,-28.320,-29.785,-42.480,0.000
1743562993.867,-36.621,-26.855,-34.668,-37.598,0.000
1743562993.871,-51.270,-23.926,-31.738,-20.020,0.000
1743562993.875,-40.527,-29.785,-27.344,-28.320,0.000
1743562993.879,-36.133,-30.762,-23.438,-45.898,0.000
1743562993.883,-40.527,-28.809,-26.367,-55.664,0.000
1743562993.887,-25.879,-23.926,-28.320,-44.922,0.000
1743562993.891,-31.250,-25.391,-29.297,-37.598,0.000
1743562993.895,-46.875,-40.039,-34.180,-46.387,0.000
1743562993.898,-41.504,-43.457,-34.668,-51.758,0.000
1743562993.902,-35.156,-35.156,-33.203,-38.574,0.000
1743562993.906,-31.250,-36.133,-34.668,-47.363,0.000
1743562993.910,-27.344,-38.086,-34.668,-49.316,0.000
1743562993.914,-19.043,-34.180,-36.621,-36.621,0.000
1743562993.918,-18.066,-27.832,-32.227,-30.273,0.000
1743562993.922,-15.137,-18.555,-24.414,-20.996,0.000
1743562993.926,-16.113,-23.926,-35.645,-29.297,0.000
1743562993.930,-22.949,-31.250,-44.922,-42.480,0.000
1743562993.934,-25.879,-35.156,-46.875,-29.297,0.000
1743562993.938,-16.113,-35.156,-42.969,-12.207,0.000
1743562993.941,-6.836,-35.645,-38.086,-29.297,0.000
1743562993.945,-17.090,-29.785,-29.297,-31.738,0.000
1743562993.949,-17.090,-22.461,-23.926,-26.367,0.000
1743562993.953,-20.020,-28.809,-32.227,-45.898,0.000
1743562993.957,-29.785,-35.156,-36.133,-31.738,0.000
1743562993.961,-30.762,-30.273,-32.715,-19.531,0.000
1743562993.965,-32.715,-18.555,-26.855,-21.484,0.000
1743562993.969,-31.738,-20.508,-27.832,-26.367,0.000
1743562993.973,-22.461,-33.203,-32.227,-34.668,0.000
1743562993.977,-31.738,-33.691,-30.273,-31.738,0.000
1743562993.981,-33.203,-27.344,-31.250,-26.855,0.000
1743562993.984,-32.227,-33.203,-37.109,-41.992,0.000
1743562993.988,-33.203,-37.109,-37.598,-32.715,0.000
1743562993.992,-31.250,-33.203,-33.203,-16.113,0.000
1743562993.996,-32.227,-29.785,-29.785,-14.648,0.000
1743562994.000,-37.109,-30.762,-35.645,-17.090,0.000
1743562994.004,-41.016,-37.109,-37.598,-22.949,0.000
1743562994.008,-29.297,-39.062,-25.879,-12.695,0.000
1743562994.012,-29.785,-34.668,-16.602,-7.324,0.000
1743562994.016,-36.133,-37.598,-24.414,-17.090,0.000
1743562994.020,-29.785,-36.133,-33.203,-10.742,0.000
1743562994.023,-33.203,-26.367,-23.438,-16.113,0.000
1743562994.027,-36.133,-18.555,-16.113,-27.344,0.000
1743562994.031,-27.832,-19.043,-18.555,-13.672,0.000
1743562994.035,-18.555,-22.461,-11.719,-3.906,0.000
1743562994.039,-17.578,-24.414,-15.137,-14.648,0.000
1743562994.043,-21.484,-23.926,-25.391,-19.043,0.000
1743562994.047,-15.625,-23.438,-36.133,-25.879,0.000
1743562994.051,-12.695,-26.855,-41.504,-29.785,0.000
1743562994.055,-30.273,-31.738,-30.762,-35.156,0.000
1743562994.059,-26.855,-27.344,-28.809,-34.180,0.000
1743562994.063,-20.508,-23.926,-32.715,-26.855,0.000
1743562994.066,-23.926,-24.902,-26.855,-23.926,0.000
1743562994.070,-16.113,-20.508,-28.809,-22.949,0.000
1743562994.074,-20.020,-26.367,-36.621,-20.020,0.000
1743562994.078,-32.227,-34.180,-36.133,-24.902,0.000
1743562994.082,-22.949,-30.762,-35.645,-29.297,0.000
1743562994.086,-28.320,-28.809,-38.086,-23.438,0.000
1743562994.090,-41.992,-29.785,-33.691,-29.785,0.000
1743562994.094,-30.273,-29.297,-31.250,-35.645,0.000
1743562994.098,-23.438,-25.391,-36.621,-37.109,0.000
1743562994.102,-32.227,-20.996,-39.062,-34.180,0.000
1743562994.106,-33.203,-21.973,-35.645,-26.367,0.000
1743562994.109,-32.227,-23.926,-37.598,-29.297,0.000
1743562994.113,-31.738,-32.227,-39.062,-27.832,0.000
1743562994.117,-38.086,-32.715,-28.809,-16.113,0.000
1743562994.121,-35.645,-34.180,-25.879,-12.207,0.000
1743562994.125,-32.715,-39.551,-34.668,-19.531,0.000
1743562994.129,-37.109,-36.621,-28.809,-24.414,0.000
1743562994.133,-34.668,-27.832,-26.367,-22.949,0.000
1743562994.137,-36.621,-28.320,-32.227,-26.855,0.000
1743562994.141,-41.016,-37.109,-34.668,-26.367,0.000
1743562994.145,-34.668,-31.250,-38.574,-20.508,0.000
1743562994.149,-41.992,-31.738,-41.504,-25.391,0.000
1743562994.152,-47.363,-38.574,-41.992,-33.691,0.000
1743562994.156,-32.715,-34.668,-36.621,-37.598,0.000
1743562994.160,-24.414,-28.809,-29.785,-34.180,0.000
1743562994.164,-28.320,-28.809,-26.855,-25.879,0.000
1743562994.168,-31.250,-32.227,-26.855,-33.691,0.000
1743562994.172,-39.062,-35.645,-29.297,-39.062,0.000
1743562994.176,-41.016,-35.156,-34.180,-30.273,0.000
1743562994.180,-32.227,-33.691,-37.109,-27.832,0.000
1743562994.184,-37.598,-33.203,-35.645,-34.668,0.000
1743562994.187,-41.504,-30.762,-41.504,-34.668,0.000
1743562994.192,-25.879,-28.809,-45.410,-25.391,0.000
1743562994.195,-22.949,-24.902,-33.203,-35.645,0.000
1743562994.199,-20.508,-24.902,-19.531,-43.457,0.000
1743562994.203,-9.766,-38.574,-24.902,-41.992,0.000
1743562994.207,-15.625,-39.551,-25.391,-52.246,0.000
1743562994.211,-31.250,-26.855,-19.531,-46.875,0.000
1743562994.215,-27.832,-24.414,-21.973,-37.109,0.000
1743562994.219,-23.926,-22.949,-22.949,-34.668,0.000
1743562994.223,-35.645,-25.879,-29.785,-36.621,0.000
1743562994.227,-22.461,-22.949,-33.203,-47.363,0.000
1743562994.230,-7.324,-19.531,-41.016,-42.969,0.000
1743562994.234,-12.207,-21.973,-39.062,-30.273,0.000
1743562994.238,-25.391,-22.949,-25.391,-23.926,0.000
1743562994.242,-38.574,-22.461,-28.809,-21.484,0.000
1743562994.246,-35.645,-29.785,-40.039,-28.320,0.000
1743562994.250,-26.367,-35.156,-40.527,-39.062,0.000
1743562994.254,-37.598,-30.273,-40.527,-40.527,0.000
1743562994.258,-41.992,-31.738,-38.574,-38.574,0.000
1743562994.262,-34.668,-37.109,-34.668,-31.250,0.000
1743562994.266,-31.738,-32.227,-38.086,-34.668,0.000
1743562994.270,-20.020,-32.715,-32.227,-39.551,0.000
1743562994.273,-31.250,-40.527,-30.273,-31.738,0.000
1743562994.277,-43.945,-36.621,-39.062,-46.387,0.000
1743562994.281,-30.273,-34.180,-31.738,-50.293,0.000
1743562994.285,-20.996,-37.598,-25.391,-30.273,0.000
1743562994.289,-23.438,-38.574,-37.109,-41.016,0.000
1743562994.293,-30.762,-40.527,-39.551,-42.969,0.000
1743562994.297,-37.109,-39.062,-31.738,-32.715,0.000
1743562994.301,-24.414,-32.227,-22.461,-25.391,0.000
1743562994.305,-13.672,-24.414,-26.367,-21.973,0.000
1743562994.309,-16.113,-24.414,-41.992,-36.621,0.000
1743562994.313,-24.902,-28.809,-41.992,-37.109,0.000
1743562994.316,-26.367,-24.414,-29.297,-28.809,0.000
1743562994.320,-41.504,-21.484,-27.344,-29.297,0.000
1743562994.324,-41.016,-27.832,-31.250,-20.996,0.000
1743562994.328,-29.785,-29.785,-28.320,-18.555,0.000
1743562994.332,-36.621,-29.297,-24.902,-33.203,0.000
1743562994.336,-34.180,-30.273,-18.066,-19.531,0.000
1743562994.340,-32.227,-34.180,-15.625,-21.484,0.000
1743562994.344,-31.738,-37.109,-23.926,-37.598,0.000
1743562994.348,-36.133,-31.250,-28.320,-25.391,0.000
1743562994.352,-39.551,-32.715,-35.645,-25.879,0.000
1743562994.355,-28.809,-27.832,-39.062,-33.691,0.000
1743562994.359,-27.832,-26.367,-30.762,-20.508,0.000
1743562994.363,-29.785,-33.691,-30.762,-35.645,0.000
1743562994.367,-25.391,-28.320,-24.414,-41.016,0.000
1743562994.371,-29.785,-27.832,-21.973,-28.809,0.000
1743562994.375,-40.039,-33.691,-33.203,-41.992,0.000
1743562994.379,-35.645,-28.809,-35.645,-33.203,0.000
1743562994.383,-22.461,-28.809,-32.227,-31.738,0.000
1743562994.387,-20.996,-27.344,-32.715,-37.109,0.000
1743562994.391,-30.273,-30.273,-26.855,-24.414,0.000
1743562994.395,-36.133,-39.551,-26.367,-19.043,0.000
1743562994.398,-32.227,-39.551,-27.832,-24.902,0.000
1743562994.402,-26.855,-36.133,-25.391,-21.973,0.000
1743562994.406,-29.785,-37.598,-27.344,-16.113,0.000
1743562994.410,-44.434,-39.062,-24.414,-20.020,0.000
1743562994.414,-36.621,-33.203,-15.137,-22.949,0.000
1743562994.418,-29.297,-36.621,-16.602,-25.391,0.000
1743562994.422,-33.203,-42.480,-34.180,-32.227,0.000
1743562994.426,-33.691,-35.156,-41.992,-26.855,0.000
1743562994.430,-28.320,-25.391,-31.250,-21.973,0.000
1743562994.434,-17.090,-22.461,-22.461,-32.227,0.000
1743562994.438,-23.438,-24.414,-24.414,-33.691,0.000
1743562994.441,-34.668,-28.809,-26.855,-25.391,0.000
1743562994.445,-27.832,-30.273,-24.902,-20.508,0.000
1743562994.449,-38.574,-39.062,-37.109,-32.715,0.000
1743562994.453,-48.828,-34.180,-40.039,-49.316,0.000
1743562994.457,-34.668,-21.973,-20.020,-39.062,0.000
1743562994.461,-30.273,-26.367,-19.043,-34.180,0.000
1743562994.465,-47.363,-32.227,-37.109,-41.504,0.000
1743562994.469,-41.504,-29.785,-36.133,-30.762,0.000
1743562994.473,0.000,-26.367,-34.180,-47.363,0.000
1743562994.477,0.000,-23.926,-31.738,-45.898,0.000
1743562994.481,0.000,-31.738,-31.250,-30.273,0.000
1743562994.484,0.000,-36.621,-34.668,-31.250,0.000
1743562994.488,0.000,-32.715,-24.902,-26.367,0.000
1743562994.492,0.000,-33.691,-14.648,-32.227,0.000
1743562994.496,0.000,-36.621,-24.414,-31.738,0.000
1743562994.500,0.000,-35.645,-33.691,-31.250,0.000
1743562994.504,0.000,-33.691,-28.809,-31.738,0.000
1743562994.508,0.000,-31.250,-24.902,-11.719,0.000
1743562994.512,0.000,-29.785,-30.273,-14.648,0.000
1743562994.516,0.000,-31.738,-35.645,-13.184,0.000
1743562994.520,-24.902,-34.180,-35.156,-17.090,0.000
1743562994.524,-38.086,-36.133,-27.344,-17.090,0.000
1743562994.527,-40.039,-37.598,-26.367,-18.066,0.000
1743562994.531,-28.809,-37.598,-37.109,-36.621,0.000
1743562994.535,-27.832,-33.691,-38.574,-18.555,0.000
1743562994.539,-39.062,-31.738,-25.391,-23.926,0.000
1743562994.543,-39.062,-31.738,-19.043,-38.086,0.000
1743562994.547,-37.109,-39.062,-30.273,-29.297,0.000
1743562994.551,-35.645,-41.016,-28.809,-27.832,0.000
1743562994.555,-34.668,-40.039,-26.367,-41.016,0.000
1743562994.559,-27.832,-36.621,-38.086,-42.969,0.000
1743562994.562,-25.879,-22.949,-35.645,-35.645,0.000
1743562994.566,-40.527,-22.461,-37.109,-43.457,0.000
1743562994.570,-49.805,-32.227,-49.805,-42.969,0.000
1743562994.574,-44.922,-38.086,-52.246,-46.875,0.000
1743562994.578,-42.480,-40.527,-44.434,-42.480,0.000
1743562994.582,-42.969,-35.645,-35.156,-28.809,0.000
1743562994.586,-44.434,-32.227,-33.691,-35.156,0.000
1743562994.590,-36.133,-33.203,-36.133,-38.086,0.000
1743562994.594,-29.785,-33.203,-34.180,-24.414,0.000
1743562994.598,-23.438,-40.039,-31.250,-20.508,0.000
1743562994.602,-19.531,-45.410,-27.832,-33.203,0.000
1743562994.605,-32.715,-37.598,-27.832,-32.227,0.000
1743562994.609,-41.504,-32.227,-25.391,-28.320,0.000
1743562994.613,-36.133,-30.273,-18.555,-27.344,0.000
1743562994.617,-31.738,-34.180,-27.344,-30.762,0.000
1743562994.621,-31.738,-34.668,-28.809,-24.902,0.000
1743562994.625,-22.949,-24.414,-28.809,-33.203,0.000
1743562994.629,-13.184,-17.578,-36.621,-41.016,0.000
1743562994.633,-27.832,-24.414,-40.039,-24.414,0.000
1743562994.637,-34.668,-32.715,-33.203,-33.203,0.000
1743562994.641,-43.457,-31.250,-19.531,-48.340,0.000
1743562994.645,-43.945,-28.320,-18.066,-36.621,0.000
1743562994.648,-34.668,-25.391,-17.578,-36.621,0.000
1743562994.652,-21.973,-28.320,-23.438,-43.457,0.000
1743562994.656,-22.461,-27.344,-27.344,-19.531,0.000
1743562994.660,-30.762,-19.531,-21.973,-13.672,0.000
1743562994.664,-33.691,-23.926,-22.461,-31.738,0.000
1743562994.668,-32.227,-25.391,-22.949,-31.250,0.000
1743562994.672,-29.297,-24.414,-20.020,-30.762,0.000
1743562994.676,-26.855,-32.715,-17.090,-27.344,0.000
1743562994.680,-34.180,-30.762,-16.113,-23.926,0.000
1743562994.684,-39.062,-27.344,-19.531,-20.996,0.000
1743562994.688,-27.344,-24.902,-26.855,-6.348,0.000
1743562994.691,-26.367,-22.461,-32.715,-13.672,0.000
1743562994.695,-26.855,-23.438,-28.809,-33.691,0.000
1743562994.699,-15.137,-19.043,-20.996,-19.531,0.000
1743562994.703,-8.789,-20.020,-26.367,-10.742,0.000
1743562994.707,-19.531,-28.809,-33.203,-22.949,0.000
1743562994.711,-21.973,-32.715,-28.809,-25.879,0.000
1743562994.715,-3.418,-25.391,-21.973,-20.508,0.000
1743562994.719,-22.461,-18.555,-24.414,-21.973,0.000
1743562994.723,-28.809,-20.508,-27.832,-26.855,0.000
1743562994.727,-14.648,-18.555,-30.762,-30.273,0.000
1743562994.730,-23.438,-22.461,-31.738,-19.531,0.000
1743562994.734,-25.879,-25.879,-22.461,-9.766,0.000
1743562994.738,-19.043,-18.066,-18.066,-40.527,0.000
1743562994.742,-20.020,-18.555,-24.902,-49.805,0.000
1743562994.746,-23.438,-17.090,-29.785,-33.691,0.000
1743562994.750,-25.879,-17.090,-33.691,-36.621,0.000
1743562994.754,-39.062,-28.809,-41.504,-34.668,0.000
1743562994.758,-41.992,-29.785,-39.551,-26.855,0.000
1743562994.762,-36.621,-24.414,-24.902,-18.066,0.000
1743562994.766,-34.180,-28.320,-25.391,-13.672,0.000
1743562994.770,-20.020,-29.785,-28.320,-24.414,0.000
1743562994.773,-22.949,-24.902,-19.531,-17.090,0.000
1743562994.777,-41.504,-24.414,-16.113,-23.926,0.000
1743562994.781,-36.621,-22.949,-12.207,-42.480,0.000
1743562994.785,-30.762,-19.043,-15.137,-31.250,0.000
1743562994.789,-28.320,-19.043,-21.973,-20.996,0.000
1743562994.793,-12.695,-16.602,-29.785,-26.367,0.000
1743562994.797,-8.301,-9.277,-35.645,-20.020,0.000
1743562994.801,-22.461,-20.020,-41.992,-31.738,0.000
1743562994.805,-31.250,-27.832,-49.316,-36.133,0.000
1743562994.809,-33.691,-23.438,-40.527,-19.531,0.000
1743562994.813,-29.785,-27.344,-31.738,-23.438,0.000
1743562994.816,-24.902,-34.668,-31.738,-7.812,0.000
1743562994.820,-19.531,-30.273,-28.320,-10.742,0.000
1743562994.824,-17.578,-20.996,-20.996,-37.109,0.000
1743562994.828,-35.156,-22.461,-28.809,-41.016,0.000
1743562994.832,-39.551,-27.832,-30.762,-34.180,0.000
1743562994.836,-32.227,-32.227,-27.344,-39.062,0.000
1743562994.840,-35.645,-25.391,-24.414,-30.762,0.000
1743562994.844,-29.785,-20.508,-25.391,-12.207,0.000
1743562994.848,-29.297,-29.297,-36.621,-25.391,0.000
1743562994.852,-37.598,-34.668,-39.062,-34.668,0.000
1743562994.856,-34.180,-34.180,-32.227,-45.410,0.000
1743562994.859,-17.578,-29.297,-31.738,-36.133,0.000
1743562994.863,-4.395,-18.555,-29.297,-16.602,0.000
1743562994.867,-18.555,-25.391,-30.762,-21.484,0.000
1743562994.871,-33.691,-39.062,-30.762,-27.344,0.000
1743562994.875,-37.109,-35.645,-24.414,-33.203,0.000
1743562994.879,-38.574,-26.367,-20.996,-33.203,0.000
1743562994.883,-32.715,-27.832,-29.297,-35.156,0.000
1743562994.887,-33.691,-30.273,-36.621,-39.062,0.000
1743562994.891,-28.809,-28.809,-23.926,-37.109,0.000
1743562994.895,-18.066,-24.902,-16.602,-28.320,0.000
1743562994.899,-33.203,-25.391,-32.715,-26.855,0.000
1743562994.902,-40.527,-26.855,-37.109,-22.949,0.000
1743562994.906,-32.715,-25.879,-26.855,-25.879,0.000
1743562994.910,-36.133,-35.645,-21.484,-35.645,0.000
1743562994.914,-40.039,-37.598,-18.066,-33.203,0.000
1743562994.918,-25.391,-29.297,-20.996,-34.180,0.000
1743562994.922,-25.879,-33.203,-33.203,-24.902,0.000
1743562994.926,-35.156,-39.062,-33.691,-15.137,0.000
1743562994.930,-33.691,-31.738,-27.344,-31.738,0.000
1743562994.934,-41.992,-33.203,-32.227,-44.434,0.000
1743562994.937,-39.062,-35.645,-41.504,-38.574,0.000
1743562994.941,-37.598,-31.738,-39.551,-42.969,0.000
1743562994.945,-41.016,-35.645,-28.320,-38.574,0.000
1743562994.949,-38.574,-35.645,-27.344,-27.344,0.000
1743562994.953,-36.621,-33.691,-34.668,-35.645,0.000
1743562994.957,-22.461,-28.320,-28.320,-28.320,0.000
1743562994.961,-11.719,-21.484,-16.113,-18.066,0.000
1743562994.965,-21.973,-28.809,-23.926,-20.996,0.000
1743562994.969,-28.320,-34.668,-30.273,-23.438,0.000
1743562994.973,-27.832,-26.855,-24.902,-16.602,0.000
1743562994.977,-31.250,-26.855,-31.250,-21.973,0.000
1743562994.980,-40.039,-28.320,-40.527,-23.926,0.000
1743562994.984,-33.691,-27.344,-28.320,-17.578,0.000
1743562994.988,-23.926,-27.832,-22.461,-28.320,0.000
1743562994.992,-29.785,-22.949,-25.391,-16.602,0.000
1743562994.996,-39.062,-23.926,-22.461,-16.113,0.000
1743562995.000,-32.227,-30.273,-29.785,-47.363,0.000
1743562995.004,-30.273,-27.344,-40.527,-57.129,0.000
1743562995.008,-41.504,-22.461,-34.668,-45.410,0.000
1743562995.012,-35.645,-20.996,-30.762,-32.227,0.000
1743562995.016,-20.996,-21.973,-29.785,-27.344,0.000
1743562995.020,-29.297,-18.066,-24.902,-28.320,0.000
1743562995.023,-38.086,-18.066,-22.949,-33.203,0.000
1743562995.027,-39.062,-24.414,-23.438,-32.715,0.000
1743562995.031,-41.504,-27.832,-29.785,-39.551,0.000
1743562995.035,-45.410,-34.180,-39.062,-31.250,0.000
1743562995.039,-49.316,-38.086,-39.551,-24.902,0.000
1743562995.043,-41.504,-32.715,-31.738,-44.434,0.000
1743562995.047,-43.945,-34.180,-26.855,-44.922,0.000
1743562995.051,-46.875,-35.156,-34.180,-33.691,0.000
1743562995.055,-37.598,-25.879,-39.062,-34.668,0.000
1743562995.059,-25.879,-20.020,-33.691,-32.715,0.000
1743562995.063,-22.949,-28.320,-32.227,-30.762,0.000
1743562995.066,-14.160,-29.297,-33.203,-11.719,0.000
1743562995.070,-25.391,-34.180,-29.785,-1.465,0.000
1743562995.074,-31.738,-31.250,-26.367,-20.508,0.000
1743562995.078,-31.250,-22.949,-28.809,-36.133,0.000
1743562995.082,-33.691,-24.414,-35.645,-45.410,0.000
1743562995.086,-33.203,-31.250,-43.457,-56.641,0.000
1743562995.090,-34.668,-33.203,-44.922,-45.898,0.000
1743562995.094,-38.574,-29.297,-35.156,-26.855,0.000
1743562995.098,-38.574,-34.668,-31.738,-31.250,0.000
1743562995.102,-41.016,-40.527,-36.133,-43.945,0.000
1743562995.105,-44.434,-41.504,-39.062,-36.133,0.000
1743562995.109,-38.574,-38.086,-35.156,-19.531,0.000
1743562995.113,-35.645,-34.180,-26.855,-23.438,0.000
1743562995.117,-30.762,-30.762,-22.949,-26.367,0.000
1743562995.121,-26.855,-29.785,-28.809,-34.180,0.000
1743562995.125,-23.438,-18.555,-29.785,-32.227,0.000
1743562995.129,-38.574,-18.555,-26.855,-26.855,0.000
1743562995.133,-42.969,-26.367,-26.855,-25.391,0.000
1743562995.137,-32.715,-23.438,-19.043,-29.297,0.000
1743562995.141,-32.227,-22.949,-20.020,-42.480,0.000
1743562995.145,-30.762,-28.320,-32.227,-32.227,0.000
1743562995.148,-23.438,-30.273,-34.180,-20.996,0.000
1743562995.152,-18.555,-33.203,-36.133,-26.855,0.000
1743562995.156,-21.484,-34.668,-41.992,-29.785,0.000
1743562995.160,-25.391,-34.668,-37.109,-23.926,0.000
1743562995.164,-24.414,-33.203,-26.855,-29.297,0.000
1743562995.168,-20.508,-25.391,-20.020,-23.438,0.000
1743562995.172,-17.090,-21.973,-16.113,-21.484,0.000
1743562995.176,-13.672,-18.555,-20.020,-30.273,0.000
1743562995.180,-20.996,-16.602,-27.832,-30.273,0.000
1743562995.184,-30.762,-24.902,-29.297,-30.762,0.000
1743562995.188,-21.484,-32.227,-29.785,-30.762,0.000
1743562995.191,-24.414,-34.668,-29.785,-45.410,0.000
1743562995.195,-24.414,-29.785,-30.273,-38.086,0.000
1743562995.199,-14.160,-25.391,-33.203,-16.113,0.000
1743562995.203,-14.648,-20.996,-36.133,-10.254,0.000
1743562995.207,-26.367,-19.043,-30.762,-20.996,0.000
1743562995.211,-29.297,-23.438,-17.578,-24.902,0.000
1743562995.215,-19.043,-23.926,-16.602,-28.809,0.000
1743562995.219,-13.184,-30.273,-23.926,-37.109,0.000
1743562995.223,-21.973,-29.785,-22.461,-32.715,0.000
1743562995.227,-18.066,-20.996,-27.344,-29.785,0.000
1743562995.231,-20.996,-14.648,-34.180,-38.574,0.000
1743562995.234,-42.480,-21.484,-34.180,-44.922,0.000
1743562995.238,-37.109,-29.297,-27.344,-37.109,0.000
1743562995.242,-26.367,-32.227,-21.973,-32.715,0.000
1743562995.246,-31.250,-33.691,-24.902,-26.367,0.000
1743562995.250,-25.391,-34.668,-44.922,-21.484,0.000
1743562995.254,-17.090,-30.762,-52.734,-31.738,0.000
1743562995.258,-18.066,-28.809,-46.387,-36.621,0.000
1743562995.262,-28.320,-34.668,-41.016,-18.555,0.000
1743562995.266,-32.227,-39.062,-24.902,-3.418,0.000
1743562995.270,-30.273,-40.039,-26.367,-23.926,0.000
1743562995.274,-33.691,-37.109,-31.250,-30.762,0.000
1743562995.277,-30.273,-40.039,-35.645,-20.508,0.000
1743562995.281,-27.344,-40.039,-39.551,-28.809,0.000
1743562995.285,-23.926,-31.738,-24.414,-27.344,0.000
1743562995.289,-21.484,-27.344,-17.578,-20.020,0.000
1743562995.293,-19.043,-29.297,-26.855,-34.180,0.000
1743562995.297,-20.508,-33.691,-29.297,-25.879,0.000
1743562995.301,-32.227,-33.691,-27.832,-21.484,0.000
1743562995.305,-31.250,-29.297,-27.344,-32.227,0.000
1743562995.309,-22.461,-26.367,-28.320,-19.043,0.000
1743562995.312,-28.320,-30.762,-28.809,-21.973,0.000
1743562995.316,-39.062,-35.156,-26.855,-31.738,0.000
1743562995.320,-49.805,-34.180,-24.902,-23.438,0.000
1743562995.324,-42.480,-29.297,-23.926,-27.344,0.000
1743562995.328,-39.062,-29.297,-35.156,-25.879,0.000
1743562995.332,-48.340,-32.715,-41.992,-28.809,0.000
1743562995.336,-39.551,-36.133,-24.902,-27.832,0.000
1743562995.340,-43.945,-44.922,-29.785,-33.691,0.000
1743562995.344,-48.340,-37.598,-42.969,-37.109,0.000
1743562995.348,-40.039,-28.320,-37.598,-29.785,0.000
1743562995.352,-33.691,-27.344,-27.344,-22.461,0.000
1743562995.355,-20.508,-24.902,-21.973,-15.137,0.000
1743562995.359,-23.926,-23.926,-20.996,-23.438,0.000
1743562995.363,-33.691,-26.855,-30.762,-39.062,0.000
1743562995.367,-28.809,-30.762,-35.156,-25.391,0.000
1743562995.371,-28.809,-33.691,-30.762,-24.414,0.000
1743562995.375,-29.297,-33.203,-34.668,-38.574,0.000
1743562995.379,-21.484,-32.227,-34.668,-30.273,0.000
1743562995.383,-27.344,-31.738,-29.785,-13.184,0.000
1743562995.387,-27.344,-28.809,-29.297,-20.020,0.000
1743562995.391,-20.020,-28.320,-31.250,-34.668,0.000
1743562995.395,-20.996,-37.109,-41.016,-33.691,0.000
1743562995.398,-18.066,-35.156,-41.016,-24.414,0.000
1743562995.402,-23.438,-26.855,-26.855,-26.367,0.000
1743562995.406,-40.527,-24.902,-24.902,-36.133,0.000
1743562995.410,-34.668,-22.461,-26.367,-33.203,0.000
1743562995.414,-20.508,-22.461,-27.832,-19.043,0.000
1743562995.418,-25.879,-19.531,-35.156,-32.715,0.000
1743562995.422,-33.691,-16.602,-30.273,-47.852,0.000
1743562995.426,-35.645,-21.484,-16.602,-29.297,0.000
1743562995.430,-43.457,-27.832,-13.184,-16.602,0.000
1743562995.434,-52.246,-40.039,-25.391,-36.621,0.000
1743562995.438,-46.387,-45.410,-31.738,-46.875,0.000
1743562995.441,-24.414,-36.133,-32.227,-33.691,0.000
1743562995.445,-22.461,-30.273,-32.715,-18.555,0.000
1743562995.449,-28.320,-28.809,-36.133,-37.598,0.000
1743562995.453,-26.367,-30.762,-33.203,-46.387,0.000
1743562995.457,-22.949,-35.156,-20.996,-31.738,0.000
1743562995.461,-26.367,-33.203,-16.602,-34.668,0.000
1743562995.465,-32.715,-28.809,-28.320,-31.738,0.000
1743562995.469,-27.832,-29.297,-35.645,-17.578,0.000
1743562995.473,-27.344,-26.367,-30.762,-7.324,0.000
1743562995.477,-29.297,-24.902,-18.066,-21.973,0.000
1743562995.480,-24.414,-35.156,-21.484,-32.715,0.000
1743562995.484,-23.926,-38.086,-39.062,-32.227,0.000
1743562995.488,-32.715,-33.203,-42.480,-46.387,0.000
1743562995.492,-30.273,-34.668,-36.621,-44.922,0.000
1743562995.496,-22.461,-29.297,-30.762,-27.832,0.000
1743562995.500,-20.508,-22.461,-35.645,-23.438,0.000
1743562995.504,0.000,-24.414,-36.621,-19.043,0.000
1743562995.508,0.000,-20.020,-31.250,-8.301,0.000
1743562995.512,0.000,-14.648,-29.297,-23.438,0.000
1743562995.516,0.000,-20.996,-29.785,-41.504,0.000
1743562995.520,0.000,-30.273,-28.809,-34.180,0.000
1743562995.523,0.000,-28.320,-21.484,-16.113,0.000
1743562995.527,0.000,-29.785,-20.020,-16.602,0.000
1743562995.531,0.000,-35.156,-25.879,-32.715,0.000
1743562995.535,0.000,-30.762,-24.414,-18.066,0.000
1743562995.539,0.000,-22.461,-23.926,-13.184,0.000
1743562995.543,0.000,-17.578,-28.320,-37.109,0.000
1743562995.547,0.000,-21.973,-31.738,-23.926,0.000
1743562995.551,-13.184,-26.367,-30.762,-16.113,0.000
1743562995.555,-20.996,-26.855,-33.203,-35.156,0.000
1743562995.559,-28.320,-22.461,-34.180,-28.320,0.000
1743562995.563,-20.020,-18.555,-33.691,-28.320,0.000
1743562995.566,-16.113,-24.902,-37.598,-40.527,0.000
1743562995.570,-26.367,-25.391,-34.180,-38.574,0.000
1743562995.574,-28.320,-22.949,-27.344,-20.508,0.000
1743562995.578,-33.691,-34.180,-28.809,-34.180,0.000
1743562995.582,-44.434,-41.992,-40.527,-59.570,0.000
1743562995.586,-42.480,-34.180,-38.574,-43.945,0.000
1743562995.590,-34.180,-26.855,-29.785,-30.273,0.000
1743562995.594,-33.203,-26.855,-33.691,-36.621,0.000
1743562995.598,0.000,-28.809,-32.715,-40.039,0.000
1743562995.602,0.000,-31.738,-34.668,-38.574,0.000
1743562995.606,0.000,-38.574,-40.527,-30.273,0.000
1743562995.609,0.000,-32.227,-37.598,-19.531,0.000
1743562995.613,0.000,-25.879,-35.645,-21.973,0.000
1743562995.617,0.000,-25.879,-33.691,-24.414,0.000
1743562995.621,0.000,-30.273,-34.180,-32.227,0.000
1743562995.625,0.000,-40.039,-38.086,-41.016,0.000
1743562995.629,0.000,-33.203,-37.598,-39.062,0.000
1743562995.633,0.000,-27.832,-28.809,-29.785,0.000
1743562995.637,0.000,-24.414,-22.949,-14.160,0.000
1743562995.641,0.000,-19.531,-23.926,-13.672,0.000
1743562995.645,-43.457,-26.367,-24.902,-23.438,0.000
1743562995.649,-27.344,-29.297,-30.273,-30.273,0.000
1743562995.652,-20.996,-24.902,-29.297,-28.320,0.000
1743562995.656,-23.438,-28.809,-26.367,-24.414,0.000
1743562995.660,-34.668,-34.180,-25.879,-25.391,0.000
1743562995.664,-33.203,-28.809,-21.484,-26.367,0.000
1743562995.668,-30.273,-40.039,-35.645,-35.156,0.000
1743562995.672,-43.457,-53.223,-41.504,-45.898,0.000
1743562995.676,-38.574,-53.223,-36.621,-44.922,0.000
1743562995.680,-37.109,-42.480,-31.738,-39.551,0.000
1743562995.684,-46.875,-30.762,-32.227,-36.133,0.000
1743562995.687,-42.480,-25.879,-35.156,-40.527,0.000
1743562995.691,-33.691,-24.414,-39.062,-36.621,0.000
1743562995.695,-22.461,-21.973,-36.621,-29.785,0.000
1743562995.699,-15.625,-22.949,-24.902,-18.066,0.000
1743562995.703,-22.461,-29.297,-22.949,-9.766,0.000
1743562995.707,-40.527,-34.180,-29.785,-38.086,0.000
1743562995.711,-49.805,-36.621,-29.297,-41.504,0.000
1743562995.715,-48.828,-41.992,-19.531,-24.902,0.000
1743562995.719,-43.945,-42.969,-16.602,-34.180,0.000
1743562995.723,-37.109,-38.086,-26.367,-26.367,0.000
1743562995.727,-29.785,-30.762,-27.344,-23.438,0.000
1743562995.730,-42.969,-29.297,-28.320,-35.156,0.000
1743562995.734,-44.922,-28.809,-36.621,-27.832,0.000
1743562995.738,-35.645,-30.762,-36.621,-31.738,0.000
1743562995.742,-41.504,-35.645,-33.691,-39.551,0.000
1743562995.746,-49.805,-40.527,-33.691,-38.086,0.000
1743562995.750,-39.062,-35.156,-34.180,-30.273,0.000
1743562995.754,-33.203,-35.156,-33.203,-29.297,0.000
1743562995.758,-36.621,-44.922,-40.039,-38.574,0.000
1743562995.762,-37.109,-46.387,-39.551,-46.875,0.000
1743562995.766,-39.551,-39.551,-34.180,-52.246,0.000
1743562995.770,-38.086,-31.738,-32.715,-35.156,0.000
1743562995.773,-33.691,-31.250,-34.180,-25.391,0.000
1743562995.777,-25.879,-19.043,-25.391,-24.902,0.000
1743562995.781,-19.043,-12.695,-19.043,-32.715,0.000
1743562995.785,-26.855,-25.879,-30.762,-30.273,0.000
1743562995.789,-29.297,-28.320,-31.250,-31.250,0.000
1743562995.793,-22.949,-23.926,-26.367,-30.273,0.000
1743562995.797,-25.879,-25.879,-38.086,-41.504,0.000
1743562995.801,-26.367,-27.832,-39.551,-51.270,0.000
1743562995.805,-34.180,-28.809,-29.297,-54.199,0.000
1743562995.809,-46.875,-27.832,-27.832,-48.340,0.000
1743562995.812,-45.898,-28.320,-25.391,-29.297,0.000
1743562995.816,-41.992,-35.156,-25.391,-32.715,0.000
1743562995.820,-44.922,-33.203,-23.926,-51.270,0.000
1743562995.824,-44.922,-30.762,-22.949,-44.922,0.000
1743562995.828,-42.969,-31.738,-20.020,-40.527,0.000
1743562995.832,-50.293,-32.715,-19.043,-47.363,0.000
1743562995.836,-62.500,-36.621,-20.020,-44.922,0.000
1743562995.840,-59.570,-32.227,-15.137,-39.551,0.000
1743562995.844,-72.266,-27.832,-26.367,-43.457,0.000
1743562995.848,-78.125,-27.832,-32.227,-66.895,0.000
1743562995.852,-79.102,-20.996,-29.297,-86.426,0.000
1743562995.855,-78.125,-22.461,-35.645,-79.590,0.000
1743562995.859,-69.336,-20.020,-44.922,-90.332,0.000
1743562995.863,-68.848,-13.184,-44.434,-94.727,0.000
1743562995.867,-72.266,-14.160,-47.363,-99.609,0.000
1743562995.871,-76.660,-17.090,-55.176,-126.465,0.000
1743562995.875,-86.914,-16.113,-51.758,-130.371,0.000
1743562995.879,-92.285,-12.695,-49.316,-105.957,0.000
1743562995.883,-91.797,-16.113,-50.781,-102.539,0.000
1743562995.887,-90.332,-16.602,-47.852,-111.816,0.000
1743562995.891,-96.680,-10.254,-52.246,-119.141,0.000
1743562995.895,-104.004,-8.301,-61.523,-123.047,0.000
1743562995.898,-112.305,-12.695,-67.383,-126.953,0.000
1743562995.902,-105.469,-21.484,-52.734,-144.043,0.000
1743562995.906,-104.980,-24.414,-44.922,-136.719,0.000
1743562995.910,-117.188,-24.902,-57.129,-127.930,0.000
1743562995.914,-107.910,-20.508,-53.711,-118.652,0.000
1743562995.918,-95.215,-7.812,-40.527,-112.305,0.000
1743562995.922,-97.656,-11.719,-41.016,-119.141,0.000
1743562995.926,-93.750,-23.926,-42.969,-122.559,0.000
1743562995.930,-86.426,-30.273,-44.922,-119.141,0.000
1743562995.934,-81.543,-29.785,-37.598,-102.051,0.000
1743562995.938,-72.266,-20.996,-26.367,-81.543,0.000
1743562995.941,-76.660,-25.879,-29.785,-77.148,0.000
1743562995.945,-75.195,-33.203,-29.785,-79.590,0.000
1743562995.949,-54.688,-34.180,-28.320,-70.801,0.000
1743562995.953,-41.992,-30.273,-23.926,-39.551,0.000
1743562995.957,-47.852,-30.273,-19.531,-38.086,0.000
1743562995.961,-41.504,-36.133,-22.461,-39.062,0.000
1743562995.965,-26.367,-31.250,-19.531,-28.320,0.000
1743562995.969,-19.043,-33.203,-15.625,-25.879,0.000
1743562995.973,-12.695,-39.062,-14.648,-13.184,0.000
1743562995.977,-10.254,-37.109,-17.090,-14.160,0.000
1743562995.981,-19.531,-42.480,-20.996,-12.207,0.000
1743562995.984,-17.578,-46.875,-18.555,-8.789,0.000
1743562995.988,-7.812,-43.945,-13.672,0.000,0.000
1743562995.992,-10.742,-45.898,-17.090,3.418,0.000
1743562995.996,-1.465,-39.062,-24.902,4.883,0.000
1743562996.000,5.859,-33.691,-32.715,17.090,0.000
1743562996.004,3.906,-33.691,-27.832,25.391,0.000
1743562996.008,12.695,-28.809,-14.160,29.785,0.000
1743562996.012,19.043,-28.809,-12.695,25.391,0.000
1743562996.016,10.742,-33.203,-25.879,21.484,0.000
1743562996.020,5.859,-26.367,-32.227,32.715,0.000
1743562996.023,7.812,-18.066,-27.344,28.809,0.000
1743562996.027,6.836,-24.902,-19.043,14.160,0.000
1743562996.031,5.859,-36.621,-20.020,15.137,0.000
1743562996.035,1.465,-33.691,-19.531,18.555,0.000
1743562996.039,2.930,-25.391,-10.254,20.508,0.000
1743562996.043,9.277,-31.738,-14.160,13.184,0.000
1743562996.047,0.000,-37.598,-25.879,3.418,0.000
1743562996.051,-4.395,-28.320,-21.484,0.488,0.000
1743562996.055,4.883,-29.785,-26.367,18.555,0.000
1743562996.059,6.836,-37.598,-32.227,29.297,0.000
1743562996.062,1.953,-33.203,-17.090,15.137,0.000
1743562996.066,-3.906,-32.715,-12.207,12.207,0.000
1743562996.070,-0.977,-36.133,-19.043,19.531,0.000
1743562996.074,7.812,-39.062,-22.461,11.230,0.000
1743562996.078,0.488,-41.992,-29.297,1.953,0.000
1743562996.082,-4.883,-41.992,-30.762,-5.859,0.000
1743562996.086,6.348,-33.691,-22.461,-2.441,0.000
1743562996.090,0.977,-26.855,-17.578,-3.906,0.000
1743562996.094,-17.578,-33.691,-26.367,-14.648,0.000
1743562996.098,-15.137,-41.504,-37.598,-7.324,0.000
1743562996.102,-5.371,-35.645,-28.320,0.000,0.000
1743562996.105,-13.672,-32.715,-27.344,-7.324,0.000
1743562996.109,-19.043,-35.645,-33.203,-21.484,0.000
1743562996.113,-8.789,-32.715,-22.949,4.883,0.000
1743562996.117,-12.695,-32.715,-27.832,6.836,0.000
1743562996.121,-14.160,-34.668,-37.109,-11.230,0.000
1743562996.125,-3.418,-38.086,-31.250,-17.090,0.000
1743562996.129,0.488,-34.668,-23.926,-11.719,0.000
1743562996.133,-8.301,-27.832,-21.973,1.465,0.000
1743562996.137,-16.602,-33.203,-34.668,3.418,0.000
1743562996.141,-19.043,-36.133,-39.551,-16.113,0.000
1743562996.145,-25.391,-38.574,-34.180,-19.043,0.000
1743562996.148,-40.039,-43.945,-36.133,-6.348,0.000
1743562996.152,-29.297,-34.180,-32.227,-4.883,0.000
1743562996.156,-21.973,-29.297,-29.785,-12.207,0.000
1743562996.160,-16.113,-33.203,-31.250,-14.160,0.000
1743562996.164,-14.648,-31.250,-29.297,-18.555,0.000
1743562996.168,-14.648,-30.273,-25.879,-16.113,0.000
1743562996.172,-8.301,-32.227,-29.785,-8.789,0.000
1743562996.176,-20.508,-33.691,-38.086,-11.719,0.000
1743562996.180,-30.273,-28.809,-37.598,-14.160,0.000
1743562996.184,-21.484,-29.297,-34.180,-27.344,0.000
1743562996.187,-17.090,-26.855,-32.715,-36.621,0.000
1743562996.191,-19.043,-28.320,-31.738,-22.949,0.000
1743562996.195,-32.715,-41.992,-31.738,-19.531,0.000
1743562996.199,-25.879,-40.039,-34.668,-35.156,0.000
1743562996.203,-19.531,-24.902,-31.738,-35.645,0.000
1743562996.207,-34.668,-21.973,-35.645,-24.902,0.000
1743562996.211,-32.715,-23.438,-34.668,-25.879,0.000
1743562996.215,-21.484,-18.066,-28.320,-32.715,0.000
1743562996.219,-15.625,-21.973,-26.855,-23.926,0.000
1743562996.223,-11.230,-29.297,-25.391,-17.578,0.000
1743562996.227,-11.719,-33.691,-21.484,-9.277,0.000
1743562996.230,-22.949,-31.738,-23.926,-6.836,0.000
1743562996.234,-24.902,-32.227,-28.809,-0.977,0.000
1743562996.238,-16.602,-39.062,-28.809,1.465,0.000
1743562996.242,-21.973,-36.621,-30.762,-22.461,0.000
1743562996.246,-19.043,-31.250,-27.344,-28.320,0.000
1743562996.250,-23.926,-38.574,-28.809,-27.344,0.000
1743562996.254,-39.551,-40.527,-33.203,-39.062,0.000
1743562996.258,-41.992,-36.621,-33.203,-31.738,0.000
1743562996.262,-41.504,-34.180,-34.180,-25.391,0.000
1743562996.266,-35.645,-28.320,-32.715,-16.602,0.000
1743562996.270,-30.273,-26.367,-30.273,-21.973,0.000
1743562996.273,-21.484,-23.438,-27.344,-23.438,0.000
1743562996.277,-25.391,-26.855,-25.391,-17.090,0.000
1743562996.281,-32.227,-34.180,-27.344,-34.180,0.000
1743562996.285,-31.250,-39.551,-26.855,-15.137,0.000
1743562996.289,-18.555,-37.598,-22.461,-3.418,0.000
1743562996.293,-18.555,-25.391,-29.297,-38.574,0.000
1743562996.297,-22.949,-21.484,-32.715,-50.293,0.000
1743562996.301,-14.160,-25.879,-39.062,-49.805,0.000
1743562996.305,-1.953,-19.531,-41.504,-32.227,0.000
1743562996.309,-3.906,-16.113,-37.598,-23.926,0.000
1743562996.313,-14.160,-21.484,-43.945,-30.762,0.000
1743562996.316,-14.648,-19.043,-51.758,-18.555,0.000
1743562996.320,-14.160,-16.602,-43.945,-21.484,0.000
1743562996.324,-14.160,-24.902,-37.109,-29.785,0.000
1743562996.328,-11.719,-30.273,-38.086,-10.742,0.000
1743562996.332,-12.207,-29.785,-37.109,-9.277,0.000
1743562996.336,-15.625,-27.344,-28.320,-13.184,0.000
1743562996.340,-32.715,-30.273,-24.902,-7.812,0.000
1743562996.344,-29.785,-27.832,-30.762,-19.531,0.000
1743562996.348,-25.391,-25.879,-34.180,-20.020,0.000
1743562996.352,-33.691,-25.879,-28.809,-7.812,0.000
1743562996.356,-28.809,-24.414,-22.949,-18.066,0.000
1743562996.359,-2.930,-10.742,-16.602,-15.625,0.000
1743562996.363,-5.371,-11.230,-20.020,-7.812,0.000
1743562996.367,-25.391,-26.855,-24.902,-27.344,0.000
1743562996.371,-25.391,-20.020,-23.438,-26.855,0.000
1743562996.375,-20.996,-14.648,-29.297,-6.348,0.000
1743562996.379,-20.996,-21.973,-39.551,-3.906,0.000
1743562996.383,-22.461,-29.297,-56.152,-15.137,0.000
1743562996.387,-17.578,-27.832,-47.852,-22.949,0.000
1743562996.391,-15.137,-21.484,-31.250,-30.273,0.000
1743562996.395,-16.113,-20.996,-27.832,-24.902,0.000
1743562996.398,-16.602,-22.461,-29.297,-16.602,0.000
1743562996.402,-20.020,-21.484,-29.297,-18.066,0.000
1743562996.406,-29.297,-27.832,-33.203,-22.949,0.000
1743562996.410,-24.414,-26.855,-31.250,-14.648,0.000
1743562996.414,-9.277,-28.809,-26.855,-15.625,0.000
1743562996.418,-7.324,-29.297,-30.762,-17.090,0.000
1743562996.422,-16.113,-30.762,-32.227,-20.020,0.000
1743562996.426,-9.766,-22.461,-23.926,-28.320,0.000
1743562996.430,-4.395,-15.137,-14.160,-20.508,0.000
1743562996.434,-12.207,-21.484,-14.648,0.977,0.000
1743562996.437,-20.508,-20.996,-30.762,1.465,0.000
1743562996.441,-7.324,-17.090,-29.297,-4.395,0.000
1743562996.445,-7.324,-27.832,-20.996,-5.859,0.000
1743562996.449,-19.531,-35.645,-19.043,-4.883,0.000
1743562996.453,-28.320,-32.227,-25.879,-13.672,0.000
1743562996.457,-30.762,-23.926,-27.832,-23.438,0.000
1743562996.461,-19.531,-12.207,-19.043,-20.996,0.000
1743562996.465,-18.066,-21.973,-31.250,-23.438,0.000
1743562996.469,-21.484,-34.668,-37.109,-29.785,0.000
1743562996.473,-27.832,-29.297,-26.367,-35.645,0.000
1743562996.477,-36.133,-36.133,-31.738,-42.969,0.000
1743562996.480,-22.949,-39.062,-47.363,-34.180,0.000
1743562996.484,-16.602,-27.832,-44.922,-20.996,0.000
1743562996.488,-32.715,-22.949,-29.297,-22.461,0.000
1743562996.492,-47.363,-31.250,-34.180,-43.457,0.000
1743562996.496,-54.688,-41.504,-34.668,-52.734,0.000
1743562996.500,-64.941,-40.039,-22.949,-48.828,0.000
1743562996.504,-64.453,-42.969,-33.691,-58.594,0.000
1743562996.508,-46.875,-38.574,-24.902,-53.711,0.000
1743562996.512,-46.875,-33.203,-6.836,-40.039,0.000
1743562996.516,-56.152,-39.551,-12.207,-39.062,0.000
1743562996.520,-52.246,-42.969,-19.531,-36.133,0.000
1743562996.523,-49.316,-49.316,-29.297,-37.598,0.000
1743562996.527,-36.133,-43.945,-23.926,-27.832,0.000
1743562996.531,-27.344,-35.156,-18.066,-21.484,0.000
1743562996.535,-30.762,-39.551,-32.227,-16.113,0.000
1743562996.539,-31.250,-41.016,-37.109,-23.926,0.000
1743562996.543,-24.902,-32.715,-28.320,-19.531,0.000
1743562996.547,-25.391,-32.227,-24.902,-10.254,0.000
1743562996.551,-25.391,-30.762,-20.020,-16.602,0.000
1743562996.555,-12.695,-23.438,-6.836,-2.930,0.000
1743562996.559,-17.090,-37.109,-20.020,-19.043,0.000
1743562996.562,-40.527,-48.828,-32.227,-40.527,0.000
1743562996.566,-42.969,-42.480,-21.484,-36.133,0.000
1743562996.570,-32.227,-39.551,-27.832,-32.715,0.000
1743562996.574,-34.180,-40.527,-34.180,-37.109,0.000
1743562996.578,-38.086,-37.109,-32.715,-40.039,0.000
1743562996.582,-30.762,-29.297,-24.902,-22.949,0.000
1743562996.586,-25.879,-30.762,-20.020,5.371,0.000
1743562996.590,-24.902,-37.598,-31.738,-1.953,0.000
1743562996.594,-28.320,-43.457,-44.434,-32.715,0.000
1743562996.598,-31.250,-41.992,-40.039,-35.156,0.000
1743562996.602,-36.133,-38.086,-34.668,-39.062,0.000
1743562996.605,-45.410,-46.875,-34.668,-46.387,0.000
1743562996.609,-43.945,-45.898,-27.344,-41.992,0.000
1743562996.613,-30.273,-31.738,-10.742,-43.457,0.000
1743562996.617,-21.973,-28.320,-10.254,-32.715,0.000
1743562996.621,-39.062,-38.086,-30.273,-38.574,0.000
1743562996.625,-43.457,-35.645,-30.762,-30.762,0.000
1743562996.629,-29.785,-33.203,-32.715,-21.484,0.000
1743562996.633,-27.344,-32.227,-36.133,-31.738,0.000
1743562996.637,-27.832,-27.344,-35.645,-35.156,0.000
1743562996.641,-27.344,-26.855,-33.691,-34.668,0.000
1743562996.645,-24.414,-25.391,-30.273,-22.461,0.000
1743562996.648,-21.973,-28.809,-35.645,-35.156,0.000
1743562996.652,-28.320,-28.320,-46.875,-43.945,0.000
1743562996.656,-36.133,-27.832,-45.898,-34.668,0.000
1743562996.660,-35.645,-32.715,-38.086,-41.016,0.000
1743562996.664,-25.391,-27.832,-41.504,-35.645,0.000
1743562996.668,-17.578,-26.855,-29.785,-22.461,0.000
1743562996.672,-26.367,-28.320,-19.043,-30.273,0.000
1743562996.676,-30.762,-27.344,-19.043,-35.156,0.000
1743562996.680,-33.691,-30.762,-24.414,-36.133,0.000
1743562996.684,-33.203,-23.438,-30.762,-18.555,0.000
1743562996.688,-34.180,-25.391,-35.645,-7.324,0.000
1743562996.691,-33.691,-29.297,-36.621,-22.461,0.000
1743562996.695,-30.273,-22.461,-30.273,-28.320,0.000
1743562996.699,-30.762,-22.949,-31.250,-25.879,0.000
1743562996.703,-31.738,-35.645,-36.621,-32.715,0.000
1743562996.707,-38.086,-33.691,-43.945,-29.297,0.000
1743562996.711,-46.875,-27.344,-47.852,-18.066,0.000
1743562996.715,-54.688,-34.180,-40.039,-41.016,0.000
1743562996.719,-56.152,-36.133,-34.180,-72.754,0.000
1743562996.723,-48.828,-29.785,-29.785,-58.594,0.000
1743562996.727,-39.062,-29.297,-34.668,-30.273,0.000
1743562996.731,-41.016,-42.969,-41.504,-37.598,0.000
1743562996.734,-33.203,-51.270,-45.898,-51.758,0.000
1743562996.738,-39.062,-39.062,-47.852,-36.621,0.000
1743562996.742,-53.711,-32.715,-41.016,-38.574,0.000
1743562996.746,-40.527,-32.227,-34.668,-38.086,0.000
1743562996.750,-29.785,-23.438,-33.691,-26.855,0.000
1743562996.754,-26.855,-27.344,-40.527,-37.109,0.000
1743562996.758,-18.066,-35.156,-46.387,-40.527,0.000
1743562996.762,-20.020,-30.273,-42.969,-44.922,0.000
1743562996.766,-29.297,-27.832,-40.527,-39.062,0.000
1743562996.770,-31.738,-35.156,-38.574,-40.527,0.000
1743562996.773,-33.691,-38.574,-39.551,-43.945,0.000
1743562996.777,-27.344,-25.879,-27.344,-29.297,0.000
1743562996.781,-27.344,-26.855,-30.762,-40.039,0.000
1743562996.785,-30.762,-36.621,-44.922,-50.781,0.000
1743562996.789,-28.809,-34.180,-36.621,-50.781,0.000
1743562996.793,-22.949,-21.973,-29.785,-45.410,0.000
1743562996.797,-29.785,-23.438,-36.621,-47.363,0.000
1743562996.801,-31.738,-31.250,-43.945,-50.781,0.000
1743562996.805,-35.645,-31.738,-42.480,-56.641,0.000
1743562996.809,-53.223,-39.062,-35.645,-62.500,0.000
1743562996.812,-59.082,-32.227,-37.109,-50.293,0.000
1743562996.816,-43.945,-25.879,-40.039,-61.035,0.000
1743562996.820,-41.016,-35.645,-47.363,-60.059,0.000
1743562996.824,-31.738,-32.227,-44.922,-34.668,0.000
1743562996.828,-19.531,-18.555,-23.438,-23.438,0.000
1743562996.832,-23.438,-19.043,-18.555,-28.809,0.000
1743562996.836,-11.719,-21.484,-25.391,-17.090,0.000
1743562996.840,-18.555,-29.785,-32.715,-15.625,0.000
1743562996.844,-46.875,-40.039,-38.086,-48.340,0.000
1743562996.848,-40.527,-34.668,-28.320,-41.504,0.000
1743562996.852,-39.062,-35.645,-26.855,-27.344,0.000
1743562996.855,-35.645,-32.715,-24.414,-14.648,0.000
1743562996.859,-20.508,-30.273,-13.672,-19.531,0.000
